 PMK18    CELL:    8.37292   8.37292   8.37292   90.0000   90.0000   90.0000   SPGR: F d -3 m               TEMP:      0.00
  1   2461     1.54056     1.54443     0.00000     0.00000     0.00000    0
    30     0     0
 2Theta	Yobs	Ycal	Yobs-Ycal	Backg	Posr	(hkl)	K
     15.0210	 5151.00	 5045.82	-2050.84	 4324.60
     15.0470	 5178.00	 5048.22	-2026.24	 4326.68
     15.0730	 5157.00	 5050.63	-2049.65	 4328.77
     15.0990	 5162.00	 5053.04	-2047.06	 4330.86
     15.1250	 5045.00	 5055.46	-2166.48	 4332.95
     15.1510	 5167.00	 5057.89	-2046.91	 4335.04
     15.1770	 5203.00	 5060.32	-2013.34	 4337.13
     15.2030	 5125.00	 5062.76	-2093.78	 4339.21
     15.2290	 5160.00	 5065.21	-2061.23	 4341.30
     15.2550	 5166.00	 5067.67	-2057.69	 4343.39
     15.2810	 5236.00	 5070.13	-1990.15	 4345.48
     15.3070	 5251.00	 5072.60	-1977.62	 4347.57
     15.3330	 5161.00	 5075.08	-2070.10	 4349.66
     15.3590	 5151.00	 5077.57	-2082.59	 4351.74
     15.3850	 5083.00	 5080.07	-2153.09	 4353.83
     15.4110	 5179.00	 5082.57	-2059.59	 4355.92
     15.4370	 5238.00	 5085.08	-2003.10	 4358.01
     15.4630	 5142.00	 5087.61	-2101.63	 4360.10
     15.4890	 5221.00	 5090.14	-2025.16	 4362.19
     15.5150	 5338.00	 5092.68	-1910.70	 4364.27
     15.5410	 5163.00	 5095.24	-2088.26	 4366.36
     15.5670	 5325.00	 5097.80	-1928.82	 4368.45
     15.5930	 5061.00	 5100.37	-2195.39	 4370.54
     15.6190	 5218.00	 5102.96	-2040.98	 4372.63
     15.6450	 5190.00	 5105.56	-2071.58	 4374.72
     15.6710	 5169.00	 5108.17	-2095.19	 4376.80
     15.6970	 5148.00	 5110.79	-2118.81	 4378.89
     15.7230	 5155.00	 5113.42	-2114.44	 4380.98
     15.7490	 5133.00	 5116.07	-2139.09	 4383.07
     15.7750	 5199.00	 5118.73	-2075.75	 4385.16
     15.8010	 5197.00	 5121.41	-2080.43	 4387.25
     15.8270	 5103.00	 5124.09	-2177.11	 4389.33
     15.8530	 5168.00	 5126.80	-2114.82	 4391.42
     15.8790	 5190.00	 5129.52	-2095.54	 4393.51
     15.9050	 5321.00	 5132.25	-1967.27	 4395.60
     15.9310	 5172.00	 5135.41	-2119.43	 4397.69
     15.9570	 5091.00	 5138.18	-2203.20	 4399.78
     15.9830	 5284.00	 5140.96	-2012.98	 4401.86
     16.0090	 5166.00	 5143.77	-2133.79	 4403.95
     16.0350	 5230.00	 5146.59	-2072.61	 4406.04
     16.0610	 5325.00	 5149.64	-1980.66	 4408.13
     16.0870	 5221.00	 5153.82	-2088.84	 4411.54
     16.1130	 5216.00	 5159.51	-2099.53	 4416.43
     16.1390	 5249.00	 5165.21	-2072.23	 4421.31
     16.1650	 5274.00	 5170.94	-2052.96	 4426.20
     16.1910	 5142.00	 5176.69	-2190.71	 4431.09
     16.2170	 5173.00	 5182.47	-2165.49	 4435.97
     16.2430	 5281.00	 5188.27	-2063.29	 4440.86
     16.2690	 5189.00	 5194.10	-2161.12	 4445.75
     16.2950	 5160.00	 5199.95	-2195.97	 4450.63
     16.3210	 5274.00	 5205.83	-2087.85	 4455.52
     16.3470	 5224.00	 5211.74	-2143.76	 4460.41
     16.3730	 5254.00	 5217.68	-2119.70	 4465.29
     16.3990	 5314.00	 5223.65	-2065.67	 4470.18
     16.4250	 5190.00	 5229.66	-2195.68	 4475.07
     16.4510	 5313.00	 5235.69	-2078.71	 4479.95
     16.4770	 5341.00	 5241.77	-2056.79	 4484.84
     16.5030	 5305.00	 5247.87	-2098.89	 4489.73
     16.5290	 5394.00	 5254.02	-2016.04	 4494.61
     16.5550	 5384.00	 5260.20	-2032.22	 4499.50
     16.5810	 5241.00	 5266.43	-2181.45	 4504.39
     16.6070	 5205.00	 5272.69	-2223.71	 4509.27
     16.6330	 5148.00	 5279.00	-2287.02	 4514.16
     16.6590	 5208.00	 5285.36	-2233.38	 4519.05
     16.6850	 5366.00	 5291.76	-2081.78	 4523.93
     16.7110	 5354.00	 5298.21	-2100.23	 4528.82
     16.7370	 5334.00	 5304.70	-2126.72	 4533.71
     16.7630	 5393.00	 5311.26	-2074.28	 4538.59
     16.7890	 5344.00	 5317.86	-2129.88	 4543.48
     16.8150	 5322.00	 5324.52	-2158.54	 4548.37
     16.8410	 5415.00	 5331.24	-2072.26	 4553.25
     16.8670	 5426.00	 5338.02	-2068.04	 4558.14
     16.8930	 5433.00	 5344.87	-2067.89	 4563.02
     16.9190	 5411.00	 5353.40	-2098.42	 4569.54
     16.9450	 5290.00	 5365.06	-2231.08	 4579.11
     16.9710	 5356.00	 5376.80	-2176.82	 4588.69
     16.9970	 5527.00	 5388.60	-2017.62	 4598.26
     17.0230	 5487.00	 5400.48	-2069.50	 4607.84
     17.0490	 5428.00	 5412.44	-2140.46	 4617.41
     17.0750	 5432.00	 5424.48	-2148.50	 4626.99
     17.1010	 5367.00	 5436.60	-2225.62	 4636.57
     17.1270	 5485.00	 5448.80	-2119.82	 4646.14
     17.1530	 5541.00	 5461.09	-2076.11	 4655.72
     17.1790	 5520.00	 5473.47	-2109.49	 4665.29
     17.2050	 5622.00	 5485.95	-2019.97	 4674.87
     17.2310	 5520.00	 5498.52	-2134.54	 4684.45
     17.2570	 5556.00	 5511.18	-2111.20	 4694.02
     17.2830	 5526.00	 5523.94	-2153.96	 4703.60
     17.3090	 5539.00	 5536.81	-2153.83	 4713.17
     17.3350	 5569.00	 5549.78	-2136.80	 4722.75
     17.3610	 5587.00	 5562.85	-2131.87	 4732.33
     17.3870	 5583.00	 5576.03	-2149.05	 4741.90
     17.4130	 5547.00	 5589.32	-2198.34	 4751.48
     17.4390	 5569.00	 5602.71	-2189.73	 4761.05
     17.4650	 5554.00	 5616.22	-2218.24	 4770.63
     17.4910	 5556.00	 5629.83	-2229.85	 4780.21
     17.5170	 5621.00	 5643.55	-2178.57	 4789.78
     17.5430	 5667.00	 5657.37	-2146.39	 4799.36
     17.5690	 5550.00	 5671.29	-2277.31	 4808.93
     17.5950	 5689.00	 5685.32	-2152.34	 4818.51
     17.6210	 5794.00	 5699.44	-2061.46	 4828.09
     17.6470	 5628.00	 5713.65	-2241.67	 4837.66
     17.6730	 5633.00	 5727.94	-2250.96	 4847.24
     17.6990	 5639.00	 5742.31	-2259.33	 4856.81
     17.7250	 5714.00	 5756.75	-2198.77	 4866.39
     17.7510	 5632.00	 5771.24	-2295.26	 4875.97
     17.7770	 5606.00	 5785.77	-2335.79	 4885.54
     17.8030	 5767.00	 5798.63	-2187.65	 4893.42
     17.8290	 5796.00	 5809.82	-2169.84	 4899.60
     17.8550	 5813.00	 5820.99	-2164.01	 4905.78
     17.8810	 5772.00	 5832.14	-2216.16	 4911.96
     17.9070	 5676.00	 5843.25	-2323.27	 4918.14
     17.9330	 5737.00	 5854.30	-2273.32	 4924.32
     17.9590	 5729.00	 5865.25	-2292.27	 4930.50
     17.9850	 5749.00	 5876.09	-2283.11	 4936.67
     18.0110	 5644.00	 5886.78	-2398.80	 4942.85
     18.0370	 5800.00	 5897.31	-2253.33	 4949.03
     18.0630	 5694.00	 5907.64	-2369.66	 4955.21
     18.0890	 5740.00	 5917.74	-2333.76	 4961.39
     18.1150	 5792.00	 5927.58	-2291.60	 4967.57
     18.1410	 5786.00	 5937.15	-2307.17	 4973.75
     18.1670	 5734.00	 5946.40	-2368.42	 4979.93
     18.1930	 5741.00	 5955.32	-2370.34	 4986.11
     18.2190	 5916.00	 5963.89	-2203.91	 4992.29
     18.2450	 5814.00	 5972.07	-2314.09	 4998.47
     18.2710	 5707.00	 5979.86	-2428.88	 5004.65
     18.2970	 5751.00	 5987.24	-2392.26	 5010.83
     18.3230	 5750.00	 5994.20	-2400.22	 5017.01
     18.3490	 5808.00	 6000.73	-2348.75	 5023.19
     18.3750	 5972.00	 6006.83	-2190.85	 5029.36
     18.4010	 5849.00	 6012.50	-2319.52	 5035.54
     18.4270	 5953.00	 6017.75	-2220.77	 5041.72
     18.4530	 5919.00	 6022.59	-2259.61	 5047.90
     18.4790	 5797.00	 6027.02	-2386.04	 5054.08
     18.5050	 5915.00	 6031.07	-2272.09	 5060.26
     18.5310	 5993.00	 6034.76	-2197.78	 5066.44
     18.5570	 5938.00	 6038.11	-2256.13	 5072.62
     18.5830	 5869.00	 6041.14	-2328.16	 5078.80
     18.6090	 5955.00	 6043.88	-2244.90	 5084.98
     18.6350	 5962.00	 6046.35	-2240.37	 5091.16
     18.6610	 5943.00	 6048.59	-2261.61	 5097.34
     18.6870	 5824.00	 6050.63	-2382.65	 5103.52
     18.7130	 5946.00	 6052.48	-2262.50	 5109.70
     18.7390	 5878.00	 6054.19	-2332.21	 5115.88
     18.7650	 5829.00	 6055.77	-2382.79	 5122.06
     18.7910	 5858.00	 6057.26	-2355.28	 5128.23
     18.8170	 5929.00	 6058.67	-2285.69	 5134.41
     18.8430	 5932.00	 6060.03	-2284.05	 5140.59
     18.8690	 5949.00	 6061.36	-2268.38	 5146.77
     18.8950	 6018.00	 6062.69	-2200.71	 5152.95
     18.9210	 6197.00	 6064.02	-2023.04	 5159.13
     18.9470	 6108.00	 6065.38	-2113.40	 5165.31
     18.9730	 6088.00	 6066.77	-2134.79	 5171.49
     18.9990	 6074.00	 6068.22	-2150.24	 5177.67
     19.0250	 6038.00	 6069.73	-2187.75	 5183.85
     19.0510	 6025.00	 6071.32	-2202.34	 5190.03
     19.0770	 6076.00	 6072.99	-2153.01	 5196.21
     19.1030	 6029.00	 6074.74	-2201.76	 5202.39
     19.1290	 6021.00	 6076.59	-2211.61	 5208.57
     19.1550	 5972.00	 6075.19	-2259.21	 5211.40
     19.1810	 5988.00	 6073.39	-2241.41	 5213.73
     19.2070	 5882.00	 6071.69	-2345.71	 5216.06
     19.2330	 5923.00	 6070.10	-2303.12	 5218.39
     19.2590	 5979.00	 6068.62	-2245.64	 5220.72
     19.2850	 6037.00	 6067.25	-2186.27	 5223.05
     19.3110	 6020.00	 6065.98	-2202.00	 5225.38
     19.3370	 5936.00	 6064.83	-2284.85	 5227.71
     19.3630	 6015.00	 6063.77	-2204.79	 5230.04
     19.3890	 6004.00	 6062.83	-2214.85	 5232.38
     19.4150	 6006.00	 6061.99	-2212.01	 5234.71
     19.4410	 6058.00	 6061.25	-2159.27	 5237.04
     19.4670	 6132.00	 6060.61	-2084.63	 5239.37
     19.4930	 6151.00	 6060.07	-2065.09	 5241.70
     19.5190	 6076.00	 6059.63	-2139.65	 5244.03
     19.5450	 6183.00	 6059.27	-2032.29	 5246.36
     19.5710	 6228.00	 6059.01	-1987.03	 5248.69
     19.5970	 6175.00	 6058.84	-2039.86	 5251.02
     19.6230	 6162.00	 6058.75	-2052.77	 5253.35
     19.6490	 6116.00	 6058.75	-2098.77	 5255.68
     19.6750	 6062.00	 6058.83	-2152.85	 5258.01
     19.7010	 5978.00	 6058.98	-2237.00	 5260.34
     19.7270	 6050.00	 6059.21	-2165.23	 5262.67
     19.7530	 6123.00	 6059.51	-2092.53	 5265.00
     19.7790	 6093.00	 6059.89	-2122.91	 5267.33
     19.8050	 6127.00	 6060.33	-2089.35	 5269.66
     19.8310	 6095.00	 6060.84	-2121.86	 5271.99
     19.8570	 6008.00	 6061.41	-2209.43	 5274.33
     19.8830	 6024.00	 6062.04	-2194.06	 5276.66
     19.9090	 6023.00	 6062.74	-2195.76	 5278.99
     19.9350	 6059.00	 6063.49	-2160.51	 5281.32
     19.9610	 6011.00	 6064.29	-2209.31	 5283.65
     19.9870	 6018.00	 6065.15	-2203.17	 5285.98
     20.0130	 6072.00	 6066.06	-2150.08	 5288.31
     20.0390	 5982.00	 6067.01	-2241.03	 5290.64
     20.0650	 6007.00	 6068.02	-2217.04	 5292.97
     20.0910	 6087.00	 6069.07	-2138.09	 5295.30
     20.1170	 6121.00	 6070.17	-2105.19	 5297.63
     20.1430	 6008.00	 6071.31	-2219.33	 5299.96
     20.1690	 6029.00	 6072.49	-2199.51	 5302.29
     20.1950	 6033.00	 6073.70	-2196.72	 5304.62
     20.2210	 6087.00	 6074.96	-2143.98	 5306.95
     20.2470	 6016.00	 6076.26	-2216.28	 5309.28
     20.2730	 6115.00	 6077.59	-2118.61	 5311.61
     20.2990	 6048.00	 6078.95	-2186.97	 5313.94
     20.3250	 6012.00	 6080.35	-2224.37	 5316.27
     20.3510	 6149.00	 6081.78	-2088.80	 5318.61
     20.3770	 6108.00	 6083.87	-2131.89	 5320.94
     20.4030	 6179.00	 6085.36	-2062.38	 5323.27
     20.4290	 6028.00	 6086.88	-2214.90	 5325.60
     20.4550	 5981.00	 6088.43	-2263.45	 5327.93
     20.4810	 6130.00	 6090.00	-2116.02	 5330.26
     20.5070	 6107.00	 6091.60	-2140.62	 5332.59
     20.5330	 6092.00	 6093.54	-2157.56	 5334.92
     20.5590	 5996.00	 6095.19	-2255.21	 5337.25
     20.5850	 6097.00	 6096.86	-2155.88	 5339.58
     20.6110	 5978.00	 6098.55	-2276.57	 5341.91
     20.6370	 6041.00	 6100.27	-2215.29	 5344.24
     20.6630	 6090.00	 6102.00	-2168.02	 5346.57
     20.6890	 6058.00	 6103.76	-2201.78	 5348.90
     20.7150	 6083.00	 6105.54	-2178.56	 5351.23
     20.7410	 6240.00	 6107.34	-2023.36	 5353.56
     20.7670	 6146.00	 6109.15	-2119.17	 5355.89
     20.7930	 6108.00	 6110.98	-2159.00	 5358.23
     20.8190	 6338.00	 6112.83	-1930.85	 5360.56
     20.8450	 6230.00	 6114.70	-2040.72	 5362.89
     20.8710	 6139.00	 6116.58	-2133.60	 5365.22
     20.8970	 6168.00	 6118.48	-2106.50	 5367.55
     20.9230	 6191.00	 6120.40	-2085.42	 5369.88
     20.9490	 6280.00	 6122.32	-1998.34	 5372.21
     20.9750	 6325.00	 6124.27	-1955.29	 5374.54
     21.0010	 6108.00	 6126.39	-2174.41	 5377.04
     21.0270	 6336.00	 6129.40	-1949.42	 5380.40
     21.0530	 6162.00	 6132.42	-2126.44	 5383.77
     21.0790	 6144.00	 6135.45	-2147.47	 5387.14
     21.1050	 6230.00	 6138.49	-2064.51	 5390.50
     21.1310	 6304.00	 6141.55	-1993.57	 5393.87
     21.1570	 6098.00	 6144.62	-2202.64	 5397.24
     21.1830	 6159.00	 6147.70	-2144.72	 5400.60
     21.2090	 6189.00	 6150.79	-2117.81	 5403.97
     21.2350	 6262.00	 6153.89	-2047.91	 5407.33
     21.2610	 6321.00	 6157.00	-1992.02	 5410.70
     21.2870	 6292.00	 6160.13	-2024.15	 5414.07
     21.3130	 6280.00	 6163.26	-2039.28	 5417.43
     21.3390	 6291.00	 6166.40	-2031.42	 5420.80
     21.3650	 6342.00	 6169.55	-1983.57	 5424.17
     21.3910	 6323.00	 6172.71	-2005.73	 5427.53
     21.4170	 6179.00	 6175.88	-2152.90	 5430.90
     21.4430	 6202.00	 6179.06	-2133.08	 5434.27
     21.4690	 6310.00	 6182.25	-2028.27	 5437.63
     21.4950	 6274.00	 6185.44	-2067.46	 5441.00
     21.5210	 6266.00	 6188.65	-2078.67	 5444.36
     21.5470	 6342.00	 6191.86	-2005.88	 5447.73
     21.5730	 6310.00	 6195.08	-2041.10	 5451.10
     21.5990	 6341.00	 6198.31	-2013.33	 5454.46
     21.6250	 6298.00	 6201.54	-2059.56	 5457.83
     21.6510	 6270.00	 6204.78	-2090.80	 5461.20
     21.6770	 6404.00	 6208.03	-1960.05	 5464.56
     21.7030	 6420.00	 6211.29	-1947.31	 5467.93
     21.7290	 6368.00	 6214.55	-2002.57	 5471.29
     21.7550	 6333.00	 6217.82	-2040.84	 5474.66
     21.7810	 6389.00	 6221.09	-1988.11	 5478.03
     21.8070	 6396.00	 6224.38	-1984.40	 5481.39
     21.8330	 6401.00	 6227.66	-1982.68	 5484.76
     21.8590	 6336.00	 6230.96	-2050.98	 5488.13
     21.8850	 6274.00	 6234.26	-2116.28	 5491.49
     21.9110	 6295.00	 6237.57	-2098.59	 5494.86
     21.9370	 6305.00	 6240.88	-2091.90	 5498.23
     21.9630	 6294.00	 6244.20	-2106.22	 5501.59
     21.9890	 6268.00	 6247.52	-2135.54	 5504.96
     22.0150	 6279.00	 6250.85	-2127.87	 5508.33
     22.0410	 6362.00	 6254.18	-2048.20	 5511.69
     22.0670	 6443.00	 6257.52	-1970.54	 5515.06
     22.0930	 6359.00	 6260.87	-2057.89	 5518.42
     22.1190	 6303.00	 6264.22	-2117.24	 5521.79
     22.1450	 6437.00	 6267.57	-1986.59	 5525.16
     22.1710	 6470.00	 6270.93	-1956.95	 5528.52
     22.1970	 6375.00	 6274.30	-2055.32	 5531.89
     22.2230	 6342.00	 6277.67	-2091.69	 5535.26
     22.2490	 6428.00	 6281.04	-2009.06	 5538.62
     22.2750	 6483.00	 6284.42	-1957.44	 5541.99
     22.3010	 6411.00	 6287.81	-2032.83	 5545.35
     22.3270	 6351.00	 6291.20	-2096.22	 5548.72
     22.3530	 6320.00	 6294.59	-2130.61	 5552.09
     22.3790	 6363.00	 6297.99	-2091.01	 5555.45
     22.4050	 6455.00	 6301.39	-2002.41	 5558.82
     22.4310	 6506.00	 6304.80	-1954.82	 5562.19
     22.4570	 6424.00	 6308.21	-2040.23	 5565.55
     22.4830	 6434.00	 6311.63	-2033.65	 5568.92
     22.5090	 6411.00	 6315.04	-2060.06	 5572.29
     22.5350	 6349.00	 6318.47	-2125.49	 5575.65
     22.5610	 6396.00	 6321.90	-2081.92	 5579.02
     22.5870	 6439.00	 6325.33	-2042.35	 5582.38
     22.6130	 6408.00	 6328.77	-2076.79	 5585.75
     22.6390	 6360.00	 6332.21	-2128.23	 5589.12
     22.6650	 6330.00	 6335.65	-2161.67	 5592.48
     22.6910	 6504.00	 6339.10	-1991.12	 5595.85
     22.7170	 6495.00	 6342.55	-2003.57	 5599.22
     22.7430	 6423.00	 6346.01	-2079.03	 5602.58
     22.7690	 6447.00	 6347.73	-2056.75	 5604.21
     22.7950	 6358.00	 6347.47	-2145.49	 5603.85
     22.8210	 6436.00	 6347.21	-2067.23	 5603.49
     22.8470	 6384.00	 6346.95	-2118.97	 5603.13
     22.8730	 6380.00	 6346.70	-2122.72	 5602.77
     22.8990	 6441.00	 6346.45	-2061.47	 5602.41
     22.9250	 6371.00	 6346.21	-2131.23	 5602.04
     22.9510	 6255.00	 6345.97	-2246.99	 5601.68
     22.9770	 6428.00	 6345.73	-2073.75	 5601.32
     23.0030	 6505.00	 6345.50	-1996.52	 5600.96
     23.0290	 6411.00	 6345.27	-2090.29	 5600.60
     23.0550	 6407.00	 6345.04	-2094.06	 5600.23
     23.0810	 6493.00	 6344.82	-2007.84	 5599.87
     23.1070	 6358.00	 6344.60	-2142.62	 5599.51
     23.1330	 6324.00	 6344.38	-2176.40	 5599.15
     23.1590	 6566.00	 6344.17	-1934.19	 5598.79
     23.1850	 6415.00	 6343.96	-2084.98	 5598.43
     23.2110	 6313.00	 6343.76	-2186.78	 5598.06
     23.2370	 6322.00	 6343.56	-2177.58	 5597.70
     23.2630	 6263.00	 6343.36	-2236.38	 5597.34
     23.2890	 6419.00	 6343.17	-2080.19	 5596.98
     23.3150	 6455.00	 6342.98	-2044.00	 5596.62
     23.3410	 6374.00	 6342.79	-2124.81	 5596.25
     23.3670	 6422.00	 6342.61	-2076.63	 5595.89
     23.3930	 6529.00	 6342.43	-1969.45	 5595.53
     23.4190	 6476.00	 6342.26	-2022.28	 5595.17
     23.4450	 6352.00	 6342.09	-2146.11	 5594.81
     23.4710	 6348.00	 6341.92	-2149.94	 5594.45
     23.4970	 6470.00	 6341.76	-2027.78	 5594.08
     23.5230	 6555.00	 6341.60	-1942.62	 5593.72
     23.5490	 6432.00	 6341.44	-2065.46	 5593.36
     23.5750	 6339.00	 6341.29	-2158.31	 5593.00
     23.6010	 6513.00	 6341.14	-1984.16	 5592.64
     23.6270	 6590.00	 6341.00	-1907.02	 5592.28
     23.6530	 6408.00	 6340.86	-2088.88	 5591.91
     23.6790	 6433.00	 6340.72	-2063.74	 5591.55
     23.7050	 6451.00	 6340.59	-2045.61	 5591.19
     23.7310	 6539.00	 6340.46	-1957.48	 5590.83
     23.7570	 6377.00	 6340.33	-2119.35	 5590.47
     23.7830	 6533.00	 6340.21	-1963.23	 5590.10
     23.8090	 6485.00	 6340.09	-2011.11	 5589.74
     23.8350	 6387.00	 6339.98	-2109.00	 5589.38
     23.8610	 6357.00	 6339.87	-2138.89	 5589.02
     23.8870	 6415.00	 6339.76	-2080.78	 5588.66
     23.9130	 6450.00	 6339.66	-2045.68	 5588.30
     23.9390	 6345.00	 6339.56	-2150.58	 5587.93
     23.9650	 6469.00	 6339.47	-2026.49	 5587.57
     23.9910	 6380.00	 6339.38	-2115.40	 5587.21
     24.0170	 6367.00	 6339.30	-2128.32	 5586.85
     24.0430	 6480.00	 6339.21	-2015.23	 5586.49
     24.0690	 6449.00	 6339.14	-2046.16	 5586.12
     24.0950	 6506.00	 6339.06	-1989.08	 5585.76
     24.1210	 6367.00	 6339.00	-2128.02	 5585.40
     24.1470	 6406.00	 6338.93	-2088.95	 5585.04
     24.1730	 6409.00	 6338.87	-2085.89	 5584.68
     24.1990	 6363.00	 6338.82	-2131.84	 5584.32
     24.2250	 6271.00	 6338.77	-2223.79	 5583.95
     24.2510	 6337.00	 6338.72	-2157.74	 5583.59
     24.2770	 6399.00	 6338.68	-2095.70	 5583.23
     24.3030	 6436.00	 6338.64	-2058.66	 5582.87
     24.3290	 6414.00	 6338.61	-2080.63	 5582.51
     24.3550	 6356.00	 6338.58	-2138.60	 5582.15
     24.3810	 6390.00	 6338.56	-2104.58	 5581.78
     24.4070	 6309.00	 6338.54	-2185.56	 5581.42
     24.4330	 6304.00	 6338.53	-2190.55	 5581.06
     24.4590	 6389.00	 6338.52	-2105.54	 5580.70
     24.4850	 6426.00	 6338.51	-2068.53	 5580.34
     24.5110	 6417.00	 6338.52	-2077.54	 5579.97
     24.5370	 6338.00	 6338.52	-2156.54	 5579.61
     24.5630	 6343.00	 6338.53	-2151.55	 5579.25
     24.5890	 6383.00	 6337.96	-2110.98	 5578.30
     24.6150	 6378.00	 6336.75	-2114.77	 5576.70
     24.6410	 6361.00	 6335.54	-2130.56	 5575.11
     24.6670	 6317.00	 6334.34	-2173.36	 5573.51
     24.6930	 6245.00	 6333.14	-2244.16	 5571.91
     24.7190	 6282.00	 6331.95	-2205.97	 5570.32
     24.7450	 6300.00	 6330.77	-2186.79	 5568.72
     24.7710	 6243.00	 6329.59	-2242.61	 5567.12
     24.7970	 6302.00	 6328.41	-2182.43	 5565.53
     24.8230	 6433.00	 6327.25	-2050.27	 5563.93
     24.8490	 6434.00	 6326.08	-2048.10	 5562.33
     24.8750	 6311.00	 6324.93	-2169.95	 5560.74
     24.9010	 6315.00	 6323.78	-2164.80	 5559.14
     24.9270	 6292.00	 6322.63	-2186.65	 5557.54
     24.9530	 6368.00	 6321.50	-2109.52	 5555.95
     24.9790	 6327.00	 6320.36	-2149.38	 5554.35
     25.0050	 6296.00	 6319.24	-2179.26	 5552.75
     25.0310	 6294.00	 6318.12	-2180.14	 5551.16
     25.0570	 6315.00	 6317.01	-2158.03	 5549.56
     25.0830	 6288.00	 6315.91	-2183.93	 5547.97
     25.1090	 6277.00	 6314.81	-2193.83	 5546.37
     25.1350	 6265.00	 6313.72	-2204.74	 5544.77
     25.1610	 6300.00	 6312.63	-2168.65	 5543.18
     25.1870	 6373.00	 6311.56	-2094.58	 5541.58
     25.2130	 6352.00	 6310.49	-2114.51	 5539.98
     25.2390	 6350.00	 6309.42	-2115.44	 5538.39
     25.2650	 6418.00	 6308.37	-2046.39	 5536.79
     25.2910	 6295.00	 6307.32	-2168.34	 5535.19
     25.3170	 6309.00	 6306.28	-2153.30	 5533.60
     25.3430	 6315.00	 6305.25	-2146.27	 5532.00
     25.3690	 6427.00	 6304.23	-2033.25	 5530.40
     25.3950	 6436.00	 6303.21	-2023.23	 5528.81
     25.4210	 6342.00	 6302.21	-2116.23	 5527.21
     25.4470	 6325.00	 6301.21	-2132.23	 5525.61
     25.4730	 6338.00	 6300.22	-2118.24	 5524.02
     25.4990	 6478.00	 6299.24	-1977.26	 5522.42
     25.5250	 6414.00	 6298.27	-2040.29	 5520.82
     25.5510	 6379.00	 6297.30	-2074.32	 5519.23
     25.5770	 6299.00	 6296.35	-2153.37	 5517.63
     25.6030	 6318.00	 6295.41	-2133.43	 5516.03
     25.6290	 6295.00	 6294.47	-2155.49	 5514.44
     25.6550	 6338.00	 6293.55	-2111.57	 5512.84
     25.6810	 6356.00	 6292.63	-2092.65	 5511.24
     25.7070	 6285.00	 6291.73	-2162.75	 5509.65
     25.7330	 6343.00	 6290.83	-2103.85	 5508.05
     25.7590	 6158.00	 6289.95	-2287.97	 5506.45
     25.7850	 6188.00	 6289.08	-2257.10	 5504.86
     25.8110	 6106.00	 6288.21	-2338.23	 5503.26
     25.8370	 6160.00	 6287.36	-2283.38	 5501.67
     25.8630	 6374.00	 6286.52	-2068.54	 5500.07
     25.8890	 6285.00	 6285.70	-2156.72	 5498.47
     25.9150	 6440.00	 6284.88	-2000.90	 5496.88
     25.9410	 6437.00	 6284.08	-2003.10	 5495.28
     25.9670	 6340.00	 6283.28	-2099.30	 5493.68
     25.9930	 6442.00	 6282.65	-1996.67	 5492.23
     26.0190	 6353.00	 6282.14	-2085.16	 5490.89
     26.0450	 6354.00	 6281.64	-2083.66	 5489.55
     26.0710	 6459.00	 6281.16	-1978.18	 5488.21
     26.0970	 6213.00	 6280.69	-2223.71	 5486.87
     26.1230	 6381.00	 6280.23	-2055.25	 5485.53
     26.1490	 6320.00	 6279.79	-2115.81	 5484.19
     26.1750	 6315.00	 6279.37	-2120.39	 5482.85
     26.2010	 6324.00	 6278.96	-2110.98	 5481.51
     26.2270	 6382.00	 6278.56	-2052.58	 5480.17
     26.2530	 6390.00	 6278.18	-2044.20	 5478.83
     26.2790	 6340.00	 6277.81	-2093.83	 5477.50
     26.3050	 6305.00	 6277.46	-2128.48	 5476.16
     26.3310	 6380.00	 6277.13	-2053.15	 5474.82
     26.3570	 6290.00	 6276.82	-2142.84	 5473.48
     26.3830	 6310.00	 6276.52	-2122.54	 5472.14
     26.4090	 6371.00	 6276.24	-2061.26	 5470.80
     26.4350	 6289.00	 6275.97	-2142.99	 5469.46
     26.4610	 6197.00	 6275.73	-2234.75	 5468.12
     26.4870	 6198.00	 6275.50	-2233.52	 5466.78
     26.5130	 6330.00	 6275.30	-2101.32	 5465.44
     26.5390	 6265.00	 6275.11	-2166.13	 5464.10
     26.5650	 6284.00	 6274.95	-2146.97	 5462.76
     26.5910	 6256.00	 6274.80	-2174.82	 5461.42
     26.6170	 6349.00	 6274.71	-2081.73	 5460.08
     26.6430	 6296.00	 6274.60	-2134.62	 5458.74
     26.6690	 6250.00	 6274.52	-2180.54	 5457.41
     26.6950	 6309.00	 6274.47	-2121.49	 5456.07
     26.7210	 6287.00	 6274.44	-2143.46	 5454.73
     26.7470	 6209.00	 6274.43	-2221.45	 5453.39
     26.7730	 6276.00	 6274.45	-2154.47	 5452.05
     26.7990	 6255.00	 6274.50	-2175.52	 5450.71
     26.8250	 6285.00	 6274.56	-2145.58	 5449.37
     26.8510	 6237.00	 6274.66	-2193.68	 5448.03
     26.8770	 6189.00	 6274.78	-2241.80	 5446.69
     26.9030	 6149.00	 6274.93	-2281.95	 5445.35
     26.9290	 6214.00	 6275.10	-2217.12	 5444.01
     26.9550	 6238.00	 6275.31	-2193.33	 5442.67
     26.9810	 6159.00	 6275.55	-2272.57	 5441.33
     27.0070	 6235.00	 6275.82	-2196.84	 5439.99
     27.0330	 6263.00	 6276.12	-2169.14	 5438.65
     27.0590	 6166.00	 6276.45	-2266.47	 5437.31
     27.0850	 6150.00	 6276.82	-2282.84	 5435.98
     27.1110	 6272.00	 6277.22	-2161.24	 5434.64
     27.1370	 6309.00	 6277.66	-2124.68	 5433.30
     27.1630	 6291.00	 6278.13	-2143.15	 5431.96
     27.1890	 6285.00	 6278.64	-2149.66	 5430.62
     27.2150	 6223.00	 6279.19	-2212.21	 5429.28
     27.2410	 6136.00	 6279.78	-2299.80	 5427.94
     27.2670	 6140.00	 6280.41	-2296.43	 5426.60
     27.2930	 6154.00	 6281.08	-2283.10	 5425.26
     27.3190	 6124.00	 6281.80	-2313.82	 5423.92
     27.3450	 6193.00	 6282.56	-2245.58	 5422.58
     27.3710	 6182.00	 6283.37	-2257.39	 5421.24
     27.3970	 6126.00	 6284.22	-2314.24	 5419.90
     27.4230	 6236.00	 6285.12	-2205.14	 5418.56
     27.4490	 6274.00	 6286.07	-2168.09	 5417.23
     27.4750	 6176.00	 6287.08	-2267.10	 5415.89
     27.5010	 6115.00	 6288.13	-2329.15	 5414.55
     27.5270	 6211.00	 6289.25	-2234.27	 5413.21
     27.5530	 6263.00	 6290.42	-2183.44	 5411.87
     27.5790	 6179.00	 6291.64	-2268.66	 5410.53
     27.6050	 6223.00	 6292.93	-2225.95	 5409.19
     27.6310	 6189.00	 6294.28	-2261.30	 5407.85
     27.6570	 6227.00	 6295.69	-2224.71	 5406.51
     27.6830	 6340.00	 6297.17	-2113.19	 5405.17
     27.7090	 6282.00	 6298.72	-2172.74	 5403.83
     27.7350	 6205.00	 6300.33	-2251.35	 5402.49
     27.7610	 6180.00	 6302.02	-2278.04	 5401.15
     27.7870	 6155.00	 6303.79	-2304.81	 5399.81
     27.8130	 6216.00	 6305.63	-2245.65	 5398.47
     27.8390	 6319.00	 6307.56	-2144.58	 5397.14
     27.8650	 6202.00	 6309.56	-2263.58	 5395.80
     27.8910	 6130.00	 6311.65	-2337.67	 5394.46
     27.9170	 6136.00	 6313.83	-2333.85	 5393.12
     27.9430	 6148.00	 6316.10	-2324.12	 5391.78
     27.9690	 6191.00	 6318.47	-2283.49	 5390.44
     27.9950	 6309.00	 6320.93	-2167.95	 5389.10
     28.0210	 6195.00	 6323.50	-2284.52	 5387.76
     28.0470	 6226.00	 6326.17	-2256.19	 5386.42
     28.0730	 6083.00	 6328.94	-2401.96	 5385.08
     28.0990	 6216.00	 6331.83	-2271.85	 5383.74
     28.1250	 6141.00	 6334.84	-2349.86	 5382.40
     28.1510	 6263.00	 6336.74	-2229.76	 5379.84
     28.1770	 6263.00	 6336.69	-2229.71	 5375.20
     28.2030	 6287.00	 6336.76	-2205.78	 5370.55
     28.2290	 6310.00	 6336.97	-2182.99	 5365.91
     28.2550	 6205.00	 6337.32	-2288.34	 5361.26
     28.2810	 6334.00	 6337.81	-2159.83	 5356.62
     28.3070	 6193.00	 6338.44	-2301.46	 5351.97
     28.3330	 6284.00	 6339.23	-2211.25	 5347.33
     28.3590	 6197.00	 6340.19	-2299.21	 5342.68
     28.3850	 6304.00	 6341.30	-2193.32	 5338.04
     28.4110	 6220.00	 6342.59	-2278.61	 5333.40
     28.4370	 6362.00	 6344.05	-2138.07	 5328.75
     28.4630	 6284.00	 6345.70	-2217.72	 5324.11
     28.4890	 6310.00	 6347.54	-2193.56	 5319.46
     28.5150	 6368.00	 6349.57	-2137.59	 5314.82
     28.5410	 6439.00	 6351.81	-2068.83	 5310.17
     28.5670	 6386.00	 6354.27	-2124.29	 5305.53
     28.5930	 6591.00	 6356.94	-1921.96	 5300.88
     28.6190	 6706.00	 6359.84	-1809.86	 5296.24
     28.6450	 6685.00	 6362.97	-1833.99	 5291.59
     28.6710	 6521.00	 6366.35	-2001.37	 5286.95
     28.6970	 6398.00	 6369.98	-2128.00	 5282.30
     28.7230	 6534.00	 6373.87	-1995.89	 5277.66
     28.7490	 6398.00	 6378.04	-2136.06	 5273.01
     28.7750	 6363.00	 6382.51	-2175.53	 5268.37
     28.8010	 6332.00	 6387.24	-2211.26	 5263.72
     28.8270	 6286.00	 6392.27	-2262.29	 5259.08
     28.8530	 6340.00	 6397.61	-2213.63	 5254.44
     28.8790	 6457.00	 6403.27	-2102.29	 5249.79
     28.9050	 6368.00	 6409.26	-2197.28	 5245.15
     28.9310	 6466.00	 6415.59	-2105.61	 5240.50
     28.9570	 6602.00	 6422.27	-1976.29	 5235.86
     28.9830	 6383.00	 6429.30	-2202.32	 5231.21
     29.0090	 6397.00	 6436.70	-2195.72	 5226.57
     29.0350	 6395.00	 6444.47	-2205.49	 5221.92
     29.0610	 6468.00	 6452.64	-2140.66	 5217.28
     29.0870	 6375.00	 6461.19	-2242.21	 5212.63
     29.1130	 6367.00	 6470.15	-2259.17	 5207.99
     29.1390	 6432.00	 6479.53	-2203.55	 5203.34
     29.1650	 6445.00	 6489.32	-2200.34	 5198.70
     29.1910	 6369.00	 6499.53	-2286.55	 5194.05
     29.2170	 6407.00	 6510.17	-2259.19	 5189.41
     29.2430	 6474.00	 6521.24	-2203.26	 5184.76
     29.2690	 6537.00	 6532.75	-2151.77	 5180.12
     29.2950	 6568.00	 6544.69	-2132.71	 5175.48
     29.3210	 6549.00	 6557.05	-2164.07	 5170.83
     29.3470	 6569.00	 6569.84	-2156.86	 5166.19
     29.3730	 6543.00	 6583.05	-2196.07	 5161.54
     29.3990	 6533.00	 6596.67	-2219.69	 5156.90
     29.4250	 6574.00	 6610.67	-2192.69	 5152.25
     29.4510	 6657.00	 6625.05	-2124.07	 5147.61
     29.4770	 6601.00	 6639.78	-2194.80	 5142.96
     29.5030	 6607.00	 6654.87	-2203.89	 5138.32
     29.5290	 6669.00	 6670.22	-2157.24	 5133.67
     29.5550	 6578.00	 6685.82	-2263.84	 5129.03
     29.5810	 6530.00	 6701.63	-2327.65	 5124.38
     29.6070	 6600.00	 6717.60	-2273.62	 5119.74
     29.6330	 6661.00	 6733.70	-2228.72	 5115.09
     29.6590	 6610.00	 6749.83	-2295.85	 5110.45
     29.6850	 6630.00	 6765.94	-2291.96	 5105.80
     29.7110	 6661.00	 6781.95	-2276.97	 5101.16
     29.7370	 6676.00	 6797.79	-2277.81	 5096.51
     29.7630	 6643.00	 6813.36	-2326.38	 5091.87
     29.7890	 6702.00	 6828.57	-2282.59	 5087.23
     29.8150	 6680.00	 6843.33	-2319.35	 5082.58
     29.8410	 6588.00	 6857.53	-2425.55	 5077.94
     29.8670	 6730.00	 6871.07	-2297.09	 5073.29
     29.8930	 6831.00	 6883.84	-2208.86	 5068.65
     29.9190	 6750.00	 6895.74	-2301.76	 5064.00
     29.9450	 6682.00	 6906.64	-2380.66	 5059.36
     29.9710	 6706.00	 6916.46	-2366.48	 5054.71
     29.9970	 6755.00	 6925.08	-2326.10	 5050.07
     30.0230	 6759.00	 6932.42	-2329.44	 5045.42
     30.0490	 6755.00	 6938.38	-2339.40	 5040.78
     30.0750	 6777.00	 6942.88	-2321.90	 5036.13
     30.1010	 6816.00	 6945.86	-2285.88	 5031.49
     30.1270	 6780.00	 6947.25	-2323.27	 5026.84
     30.1530	 6786.00	 6947.02	-2317.04	 5022.20
     30.1790	 6844.00	 6945.13	-2257.15	 5017.55
     30.2050	 6889.00	 6941.58	-2208.60	 5012.91
     30.2310	 6994.00	 6936.36	-2098.38	 5008.27
     30.2570	 6916.00	 6929.49	-2169.51	 5003.62
     30.2830	 6865.00	 6921.00	-2212.02	 4998.98
     30.3090	 6831.00	 6910.94	-2235.96	 4994.33
     30.3350	 6783.00	 6899.37	-2272.39	 4989.69
     30.3610	 6746.00	 6886.36	-2296.38	 4985.04
     30.3870	 6757.00	 6871.98	-2271.00	 4980.40
     30.4130	 6724.00	 6856.33	-2288.35	 4975.75
     30.4390	 6840.00	 6839.51	-2155.53	 4971.11
     30.4650	 6692.00	 6821.63	-2285.65	 4966.46
     30.4910	 6780.00	 6802.77	-2178.79	 4961.82
     30.5170	 6740.00	 6783.07	-2199.09	 4957.17
     30.5430	 6757.00	 6762.61	-2161.63	 4952.53
     30.5690	 6740.00	 6741.52	-2157.54	 4947.88
     30.5950	 6580.00	 6719.90	-2295.92	 4943.24
     30.6210	 6620.00	 6697.84	-2233.86	 4938.59
     30.6470	 6637.00	 6675.45	-2194.47	 4933.95
     30.6730	 6725.00	 6652.82	-2083.84	 4929.31
     30.6990	 6699.00	 6630.04	-2087.06	 4924.66
     30.7250	 6615.00	 6607.18	-2148.20	 4920.02
     30.7510	 6558.00	 6584.32	-2182.34	 4915.37
     30.7770	 6515.00	 6561.54	-2202.56	 4910.73
     30.8030	 6542.00	 6538.88	-2152.90	 4906.08
     30.8290	 6666.00	 6516.41	-2006.43	 4901.44
     30.8550	 6635.00	 6494.17	-2015.19	 4896.79
     30.8810	 6523.00	 6472.21	-2105.23	 4892.15
     30.9070	 6463.00	 6450.56	-2143.58	 4887.50
     30.9330	 6462.00	 6429.25	-2123.27	 4882.86
     30.9590	 6508.00	 6408.32	-2056.34	 4878.21
     30.9850	 6359.00	 6387.79	-2184.81	 4873.57
     31.0110	 6442.00	 6367.67	-2081.69	 4868.92
     31.0370	 6434.00	 6347.97	-2069.99	 4864.28
     31.0630	 6344.00	 6328.72	-2140.74	 4859.63
     31.0890	 6498.00	 6309.92	-1967.94	 4854.99
     31.1150	 6407.00	 6291.57	-2040.59	 4850.34
     31.1410	 6337.00	 6273.67	-2092.69	 4845.70
     31.1670	 6355.00	 6256.24	-2057.26	 4841.06
     31.1930	 6322.00	 6239.26	-2073.28	 4836.41
     31.2190	 6226.00	 6222.74	-2152.76	 4831.77
     31.2450	 6263.00	 6206.66	-2099.68	 4827.12
     31.2710	 6254.00	 6191.04	-2093.06	 4822.48
     31.2970	 6331.00	 6175.85	-2000.87	 4817.83
     31.3230	 6246.00	 6161.10	-2071.12	 4813.19
     31.3490	 6181.00	 6146.77	-2121.79	 4808.54
     31.3750	 6140.00	 6132.86	-2148.88	 4803.90
     31.4010	 6124.00	 6119.37	-2151.39	 4799.25
     31.4270	 6176.00	 6106.27	-2086.29	 4794.61
     31.4530	 6274.00	 6093.57	-1975.59	 4789.96
     31.4790	 6077.00	 6081.25	-2160.27	 4785.32
     31.5050	 6110.00	 6069.31	-2115.33	 4780.67
     31.5310	 6129.00	 6057.74	-2084.76	 4776.03
     31.5570	 6133.00	 6046.52	-2069.54	 4771.38
     31.5830	 6141.00	 6035.66	-2050.68	 4766.74
     31.6090	 6083.00	 6025.13	-2098.15	 4762.10
     31.6350	 6065.00	 6014.94	-2105.96	 4757.45
     31.6610	 5913.00	 6005.08	-2248.10	 4752.81
     31.6870	 6094.00	 5995.53	-2057.55	 4748.16
     31.7130	 6143.00	 5986.29	-1999.31	 4743.52
     31.7390	 6049.00	 5977.35	-2084.37	 4738.87
     31.7650	 6032.00	 5968.71	-2092.73	 4734.23
     31.7910	 6117.00	 5960.36	-1999.38	 4729.58
     31.8170	 6078.00	 5952.29	-2030.31	 4724.94
     31.8430	 5953.00	 5944.49	-2147.51	 4720.29
     31.8690	 6086.00	 5936.97	-2006.99	 4715.65
     31.8950	 6087.00	 5929.71	-1998.73	 4711.00
     31.9210	 5993.00	 5922.71	-2085.73	 4706.36
     31.9470	 5946.00	 5915.96	-2125.98	 4701.71
     31.9730	 6012.00	 5909.46	-2053.48	 4697.07
     31.9990	 5904.00	 5903.21	-2155.23	 4692.42
     32.0250	 5954.00	 5897.19	-2099.21	 4687.78
     32.0510	 5950.00	 5891.42	-2097.44	 4683.13
     32.0770	 5973.00	 5885.87	-2068.89	 4678.49
     32.1030	 5903.00	 5880.56	-2133.58	 4673.85
     32.1290	 5847.00	 5875.47	-2184.49	 4669.20
     32.1550	 5811.00	 5870.61	-2215.63	 4664.56
     32.1810	 5951.00	 5865.96	-2070.98	 4659.91
     32.2070	 5915.00	 5861.54	-2102.56	 4655.27
     32.2330	 5905.00	 5857.33	-2108.35	 4650.62
     32.2590	 5885.00	 5853.34	-2124.36	 4645.98
     32.2850	 5883.00	 5849.56	-2122.58	 4641.33
     32.3110	 5952.00	 5846.00	-2050.02	 4636.69
     32.3370	 5838.00	 5842.64	-2160.66	 4632.04
     32.3630	 5813.00	 5839.50	-2182.52	 4627.40
     32.3890	 5818.00	 5836.57	-2174.59	 4622.75
     32.4150	 5761.00	 5833.84	-2228.86	 4618.11
     32.4410	 5777.00	 5831.33	-2210.35	 4613.46
     32.4670	 5788.00	 5829.03	-2197.05	 4608.82
     32.4930	 5825.00	 5826.93	-2157.95	 4604.17
     32.5190	 5859.00	 5824.48	-2121.50	 4598.96
     32.5450	 5874.00	 5819.80	-2101.82	 4591.30
     32.5710	 5858.00	 5815.33	-2113.35	 4583.64
     32.5970	 5787.00	 5811.07	-2180.09	 4575.98
     32.6230	 5839.00	 5807.03	-2124.05	 4568.32
     32.6490	 5871.00	 5803.20	-2088.22	 4560.66
     32.6750	 5810.00	 5799.60	-2145.62	 4553.00
     32.7010	 5779.00	 5796.22	-2173.24	 4545.34
     32.7270	 5701.00	 5793.07	-2248.09	 4537.68
     32.7530	 5761.00	 5790.14	-2185.16	 4530.02
     32.7790	 5812.00	 5787.45	-2131.47	 4522.35
     32.8050	 5748.00	 5784.99	-2193.01	 4514.69
     32.8310	 5797.00	 5782.76	-2141.78	 4507.03
     32.8570	 5773.00	 5780.79	-2163.81	 4499.37
     32.8830	 5807.00	 5779.06	-2128.08	 4491.71
     32.9090	 5922.00	 5777.58	-2011.60	 4484.05
     32.9350	 5891.00	 5776.35	-2041.37	 4476.39
     32.9610	 5915.00	 5775.39	-2016.41	 4468.73
     32.9870	 5865.00	 5774.70	-2065.72	 4461.07
     33.0130	 5924.00	 5774.27	-2006.29	 4453.41
     33.0390	 5824.00	 5774.13	-2106.15	 4445.75
     33.0650	 5836.00	 5774.27	-2094.29	 4438.09
     33.0910	 5880.00	 5774.71	-2050.73	 4430.43
     33.1170	 5786.00	 5775.44	-2145.46	 4422.77
     33.1430	 5817.00	 5776.48	-2115.50	 4415.10
     33.1690	 5837.00	 5777.84	-2096.86	 4407.44
     33.1950	 5820.00	 5779.52	-2115.54	 4399.78
     33.2210	 5826.00	 5781.53	-2111.55	 4392.12
     33.2470	 5935.00	 5783.88	-2004.90	 4384.46
     33.2730	 6071.00	 5786.58	-1871.60	 4376.80
     33.2990	 5994.00	 5789.65	-1951.67	 4369.14
     33.3250	 5934.00	 5793.08	-2015.10	 4361.48
     33.3510	 5893.00	 5796.90	-2059.92	 4353.82
     33.3770	 5957.00	 5801.11	-2000.13	 4346.16
     33.4030	 5935.00	 5805.73	-2026.75	 4338.50
     33.4290	 5858.00	 5810.76	-2108.78	 4330.84
     33.4550	 5909.00	 5816.23	-2063.25	 4323.18
     33.4810	 5969.00	 5822.14	-2009.16	 4315.52
     33.5070	 5969.00	 5828.51	-2015.53	 4307.86
     33.5330	 6017.00	 5835.35	-1974.37	 4300.19
     33.5590	 5893.00	 5842.69	-2105.71	 4292.53
     33.5850	 5850.00	 5850.52	-2156.54	 4284.87
     33.6110	 5886.00	 5858.89	-2128.91	 4277.21
     33.6370	 6025.00	 5867.79	-1998.81	 4269.55
     33.6630	 6007.00	 5877.25	-2026.27	 4261.89
     33.6890	 6056.00	 5887.29	-1987.31	 4254.23
     33.7150	 6110.00	 5897.92	-1943.94	 4246.57
     33.7410	 6142.00	 5909.17	-1923.19	 4238.91
     33.7670	 5945.00	 5921.06	-2132.08	 4231.25
     33.7930	 5993.00	 5933.61	-2096.63	 4223.59
     33.8190	 6091.00	 5946.85	-2011.87	 4215.93
     33.8450	 6120.00	 5960.79	-1996.81	 4208.27
     33.8710	 6067.00	 5975.47	-2064.49	 4200.61
     33.8970	 5981.00	 5990.90	-2165.92	 4192.95
     33.9230	 6132.00	 6007.12	-2031.14	 4185.28
     33.9490	 6327.00	 6024.15	-1853.17	 4177.62
     33.9750	 6115.00	 6042.02	-2083.04	 4169.96
     34.0010	 6298.00	 6060.76	-1918.78	 4162.30
     34.0270	 6165.00	 6080.39	-2071.41	 4154.64
     34.0530	 6302.00	 6100.96	-1954.98	 4146.98
     34.0790	 6410.00	 6122.49	-1868.51	 4139.32
     34.1050	 6388.00	 6145.01	-1913.03	 4131.66
     34.1310	 6342.00	 6168.55	-1982.57	 4124.00
     34.1570	 6402.00	 6193.16	-1947.18	 4116.34
     34.1830	 6382.00	 6218.86	-1992.88	 4108.68
     34.2090	 6584.00	 6245.69	-1817.71	 4101.02
     34.2350	 6589.00	 6273.68	-1840.70	 4093.36
     34.2610	 6630.00	 6302.87	-1828.89	 4085.70
     34.2870	 6557.00	 6333.30	-1932.32	 4078.03
     34.3130	 6542.00	 6365.00	-1979.02	 4070.37
     34.3390	 6704.00	 6398.00	-1850.02	 4062.71
     34.3650	 6597.00	 6432.34	-1991.36	 4055.05
     34.3910	 6699.00	 6468.06	-1925.08	 4047.39
     34.4170	 6704.00	 6505.18	-1957.20	 4039.73
     34.4430	 6778.00	 6543.74	-1921.76	 4032.07
     34.4690	 6854.00	 6583.76	-1885.78	 4024.41
     34.4950	 6843.00	 6625.27	-1938.29	 4016.75
     34.5210	 6832.00	 6668.30	-1992.32	 4009.09
     34.5470	 6894.00	 6712.87	-1974.89	 4001.43
     34.5730	 7042.00	 6758.98	-1873.00	 3993.77
     34.5990	 7203.00	 6806.65	-1759.67	 3986.11
     34.6250	 7268.00	 6855.89	-1743.91	 3978.45
     34.6510	 7154.00	 6906.70	-1908.72	 3970.79
     34.6770	 7168.00	 6959.06	-1947.08	 3963.12
     34.7030	 7255.00	 7012.94	-1913.96	 3955.46
     34.7290	 7344.00	 7068.34	-1880.36	 3947.80
     34.7550	 7428.00	 7125.20	-1853.22	 3940.14
     34.7810	 7528.00	 7183.49	-1811.51	 3932.48
     34.8070	 7464.00	 7243.11	-1935.13	 3924.82
     34.8330	 7496.00	 7304.01	-1964.03	 3917.16
     34.8590	 7621.00	 7366.09	-1901.11	 3909.50
     34.8850	 7559.00	 7429.22	-2026.24	 3901.84
     34.9110	 7552.00	 7493.28	-2097.30	 3894.18
     34.9370	 7684.00	 7558.11	-2030.13	 3886.52
     34.9630	 7795.00	 7623.55	-1984.57	 3878.86
     34.9890	 7832.00	 7689.40	-2013.42	 3871.20
     35.0150	 7848.00	 7755.42	-2063.44	 3863.54
     35.0410	 7874.00	 7821.40	-2103.42	 3855.88
     35.0670	 7932.00	 7887.06	-2111.08	 3848.21
     35.0930	 7969.00	 7952.11	-2139.13	 3840.55
     35.1190	 7995.00	 8016.24	-2177.26	 3832.89
     35.1450	 7941.00	 8079.13	-2294.15	 3825.23
     35.1710	 7967.00	 8140.43	-2329.45	 3817.57
     35.1970	 8042.00	 8199.77	-2313.79	 3809.91
     35.2230	 8018.00	 8256.77	-2394.79	 3802.25
     35.2490	 7969.00	 8311.06	-2498.08	 3794.59
     35.2750	 7975.00	 8362.23	-2543.25	 3786.93
     35.3010	 8073.00	 8409.90	-2492.92	 3779.27
     35.3270	 8038.00	 8453.67	-2571.69	 3771.61
     35.3530	 7990.00	 8493.18	-2659.20	 3763.95
     35.3790	 7980.00	 8528.07	-2704.09	 3756.29
     35.4050	 8033.00	 8558.00	-2681.02	 3748.63
     35.4310	 8047.00	 8582.67	-2691.69	 3740.97
     35.4570	 7954.00	 8601.83	-2803.85	 3733.30
     35.4830	 8011.00	 8615.22	-2760.24	 3725.64
     35.5090	 8000.00	 8622.69	-2778.71	 3717.98
     35.5350	 7910.00	 8624.08	-2870.10	 3710.32
     35.5610	 7859.00	 8619.33	-2916.35	 3702.66
     35.5870	 7913.00	 8608.40	-2851.42	 3695.00
     35.6130	 8023.00	 8591.33	-2724.35	 3687.34
     35.6390	 7903.00	 8568.19	-2821.21	 3679.68
     35.6650	 7940.00	 8539.12	-2755.14	 3672.02
     35.6910	 7785.00	 8504.30	-2875.32	 3664.36
     35.7170	 7751.00	 8463.96	-2868.98	 3656.70
     35.7430	 7774.00	 8418.36	-2800.38	 3649.04
     35.7690	 7665.00	 8367.81	-2858.83	 3641.38
     35.7950	 7587.00	 8312.64	-2881.66	 3633.72
     35.8210	 7556.00	 8253.21	-2853.23	 3626.06
     35.8470	 7540.00	 8189.89	-2805.91	 3618.39
     35.8730	 7435.00	 8123.07	-2844.09	 3610.73
     35.8990	 7439.00	 8053.13	-2770.15	 3603.07
     35.9250	 7472.00	 7980.49	-2664.51	 3595.41
     35.9510	 7324.00	 7905.50	-2737.52	 3587.75
     35.9770	 7302.00	 7828.55	-2682.57	 3580.09
     36.0030	 7360.00	 7750.00	-2546.02	 3572.43
     36.0290	 7272.00	 7670.22	-2554.24	 3564.77
     36.0550	 7281.00	 7589.51	-2464.53	 3557.11
     36.0810	 7050.00	 7508.19	-2614.21	 3549.45
     36.1070	 7031.00	 7426.54	-2551.56	 3541.79
     36.1330	 7003.00	 7344.86	-2497.88	 3534.13
     36.1590	 7010.00	 7263.34	-2409.36	 3526.47
     36.1850	 6905.00	 7182.22	-2433.24	 3518.80
     36.2110	 6825.00	 7101.70	-2432.72	 3511.14
     36.2370	 6662.00	 7021.96	-2515.98	 3503.48
     36.2630	 6705.00	 6943.13	-2394.15	 3495.82
     36.2890	 6730.00	 6865.36	-2291.38	 3488.16
     36.3150	 6620.00	 6788.75	-2324.77	 3480.50
     36.3410	 6629.00	 6713.42	-2240.44	 3472.84
     36.3670	 6366.00	 6639.42	-2429.44	 3465.18
     36.3930	 6340.00	 6566.84	-2382.86	 3457.52
     36.4190	 6154.00	 6495.71	-2497.73	 3449.86
     36.4450	 6245.00	 6426.10	-2337.12	 3442.20
     36.4710	 6243.00	 6358.00	-2271.02	 3434.54
     36.4970	 6134.00	 6291.46	-2313.48	 3426.88
     36.5230	 6168.00	 6226.47	-2214.49	 3419.22
     36.5490	 6087.00	 6163.05	-2232.07	 3411.56
     36.5750	 5959.00	 6101.17	-2298.19	 3403.90
     36.6010	 5949.00	 6040.84	-2247.86	 3396.23
     36.6270	 5971.00	 5982.04	-2167.06	 3388.57
     36.6530	 5862.00	 5924.74	-2218.76	 3380.91
     36.6790	 5803.00	 5868.93	-2221.95	 3373.25
     36.7050	 5747.00	 5814.57	-2223.59	 3365.59
     36.7310	 5803.00	 5761.65	-2114.67	 3357.93
     36.7570	 5689.00	 5710.12	-2177.14	 3350.27
     36.7830	 5749.00	 5659.95	-2066.97	 3342.61
     36.8090	 5692.00	 5611.11	-2075.13	 3334.95
     36.8350	 5696.00	 5563.57	-2023.59	 3327.29
     36.8610	 5649.00	 5517.29	-2024.31	 3319.63
     36.8870	 5587.00	 5472.22	-2041.24	 3311.97
     36.9130	 5546.00	 5428.35	-2038.37	 3304.31
     36.9390	 5585.00	 5385.63	-1956.65	 3296.65
     36.9650	 5533.00	 5344.02	-1967.04	 3288.99
     36.9910	 5496.00	 5303.48	-1963.50	 3281.32
     37.0170	 5451.00	 5264.00	-1969.02	 3273.66
     37.0430	 5427.00	 5225.52	-1954.54	 3266.00
     37.0690	 5515.00	 5188.02	-1829.04	 3258.34
     37.0950	 5481.00	 5151.46	-1826.48	 3250.68
     37.1210	 5435.00	 5115.81	-1836.83	 3243.02
     37.1470	 5302.00	 5081.05	-1935.07	 3235.36
     37.1730	 5300.00	 5047.13	-1903.15	 3227.70
     37.1990	 5343.00	 5014.03	-1827.05	 3220.04
     37.2250	 5192.00	 4981.72	-1945.74	 3212.38
     37.2510	 5097.00	 4950.18	-2009.20	 3204.72
     37.2770	 5125.00	 4919.37	-1950.39	 3197.06
     37.3030	 5069.00	 4889.27	-1976.29	 3189.40
     37.3290	 5118.00	 4859.86	-1897.88	 3181.73
     37.3550	 5110.00	 4831.11	-1877.13	 3174.07
     37.3810	 5044.00	 4803.00	-1915.02	 3166.41
     37.4070	 5005.00	 4778.30	-1929.32	 3161.55
     37.4330	 4899.00	 4757.22	-2014.24	 3159.70
     37.4590	 4889.00	 4736.71	-2003.73	 3157.85
     37.4850	 4890.00	 4716.76	-1982.78	 3156.00
     37.5110	 4872.00	 4697.34	-1981.36	 3154.16
     37.5370	 4811.00	 4678.43	-2023.45	 3152.31
     37.5630	 4817.00	 4660.03	-1999.05	 3150.46
     37.5890	 4778.00	 4642.11	-2020.13	 3148.61
     37.6150	 4766.00	 4624.66	-2014.68	 3146.76
     37.6410	 4697.00	 4607.66	-2066.68	 3144.91
     37.6670	 4615.00	 4591.10	-2132.12	 3143.07
     37.6930	 4641.00	 4574.95	-2089.97	 3141.22
     37.7190	 4538.00	 4559.21	-2177.23	 3139.37
     37.7450	 4544.00	 4543.87	-2155.89	 3137.52
     37.7710	 4573.00	 4528.91	-2111.93	 3135.67
     37.7970	 4509.00	 4514.31	-2161.33	 3133.83
     37.8230	 4538.00	 4500.08	-2118.10	 3131.98
     37.8490	 4468.00	 4486.18	-2174.20	 3130.13
     37.8750	 4385.00	 4472.62	-2243.64	 3128.28
     37.9010	 4370.00	 4459.39	-2245.41	 3126.43
     37.9270	 4404.00	 4446.46	-2198.48	 3124.59
     37.9530	 4458.00	 4433.84	-2131.86	 3122.74
     37.9790	 4416.00	 4421.51	-2161.53	 3120.89
     38.0050	 4372.00	 4409.46	-2193.48	 3119.04
     38.0310	 4352.00	 4397.69	-2201.71	 3117.19
     38.0570	 4323.00	 4386.19	-2219.21	 3115.35
     38.0830	 4267.00	 4374.94	-2263.96	 3113.50
     38.1090	 4308.00	 4363.94	-2211.96	 3111.65
     38.1350	 4390.00	 4353.18	-2119.20	 3109.80
     38.1610	 4313.00	 4342.66	-2185.68	 3107.95
     38.1870	 4242.00	 4332.36	-2246.38	 3106.10
     38.2130	 4409.00	 4322.29	-2069.31	 3104.26
     38.2390	 4350.00	 4312.43	-2118.45	 3102.41
     38.2650	 4334.00	 4302.78	-2124.80	 3100.56
     38.2910	 4240.00	 4293.33	-2209.35	 3098.71
     38.3170	 4243.00	 4284.07	-2197.09	 3096.86
     38.3430	 4172.00	 4275.00	-2259.02	 3095.02
     38.3690	 4244.00	 4266.12	-2178.14	 3093.17
     38.3950	 4283.00	 4257.42	-2130.44	 3091.32
     38.4210	 4289.00	 4248.89	-2115.91	 3089.47
     38.4470	 4250.00	 4240.53	-2146.55	 3087.62
     38.4730	 4159.00	 4232.33	-2229.35	 3085.78
     38.4990	 4182.00	 4224.30	-2198.32	 3083.93
     38.5250	 4205.00	 4216.41	-2167.43	 3082.08
     38.5510	 4230.00	 4208.68	-2134.70	 3080.23
     38.5770	 4147.00	 4201.10	-2210.12	 3078.38
     38.6030	 4159.00	 4193.66	-2190.68	 3076.54
     38.6290	 4169.00	 4186.35	-2173.38	 3074.69
     38.6550	 4172.00	 4179.19	-2163.21	 3072.84
     38.6810	 4131.00	 4172.15	-2197.17	 3070.99
     38.7070	 4237.00	 4165.25	-2084.27	 3069.14
     38.7330	 4117.00	 4158.46	-2197.48	 3067.30
     38.7590	 4234.00	 4151.80	-2073.82	 3065.45
     38.7850	 4141.00	 4145.26	-2160.28	 3063.60
     38.8110	 4166.00	 4138.84	-2128.86	 3061.75
     38.8370	 4238.00	 4132.53	-2050.55	 3059.90
     38.8630	 4069.00	 4126.32	-2213.34	 3058.05
     38.8890	 4190.00	 4120.23	-2086.25	 3056.21
     38.9150	 4207.00	 4114.24	-2063.26	 3054.36
     38.9410	 4120.00	 4108.35	-2144.37	 3052.51
     38.9670	 4044.00	 4102.57	-2214.59	 3050.66
     38.9930	 4054.00	 4096.88	-2198.90	 3048.81
     39.0190	 4129.00	 4091.29	-2118.31	 3046.97
     39.0450	 4060.00	 4085.79	-2181.81	 3045.12
     39.0710	 4085.00	 4080.38	-2151.40	 3043.27
     39.0970	 4046.00	 4075.07	-2185.09	 3041.42
     39.1230	 3974.00	 4069.84	-2251.86	 3039.57
     39.1490	 4037.00	 4064.69	-2183.71	 3037.73
     39.1750	 4039.00	 4059.64	-2176.66	 3035.88
     39.2010	 3985.00	 4054.66	-2225.68	 3034.03
     39.2270	 4056.00	 4049.76	-2149.78	 3032.18
     39.2530	 4031.00	 4044.95	-2169.97	 3030.33
     39.2790	 4013.00	 4040.21	-2183.23	 3028.49
     39.3050	 4050.00	 4035.55	-2141.57	 3026.64
     39.3310	 4073.00	 4030.96	-2113.98	 3024.79
     39.3570	 4031.00	 4026.45	-2151.47	 3022.94
     39.3830	 4122.00	 4022.01	-2056.03	 3021.09
     39.4090	 4006.00	 4017.64	-2167.66	 3019.24
     39.4350	 4097.00	 4013.34	-2072.36	 3017.40
     39.4610	 4043.00	 4009.11	-2122.13	 3015.55
     39.4870	 4042.00	 4004.95	-2118.97	 3013.70
     39.5130	 4055.00	 4000.86	-2101.88	 3011.85
     39.5390	 4085.00	 3996.83	-2067.85	 3010.00
     39.5650	 4070.00	 3992.87	-2078.89	 3008.16
     39.5910	 4069.00	 3988.97	-2075.99	 3006.31
     39.6170	 4079.00	 3985.13	-2062.15	 3004.46
     39.6430	 3963.00	 3981.36	-2174.38	 3002.61
     39.6690	 4029.00	 3977.65	-2104.67	 3000.76
     39.6950	 4021.00	 3974.00	-2109.02	 2998.92
     39.7210	 3951.00	 3970.41	-2175.43	 2997.07
     39.7470	 3893.00	 3966.88	-2229.90	 2995.22
     39.7730	 3941.00	 3963.41	-2178.43	 2993.37
     39.7990	 3982.00	 3960.00	-2134.02	 2991.52
     39.8250	 3984.00	 3956.65	-2128.67	 2989.68
     39.8510	 3993.00	 3953.36	-2116.38	 2987.83
     39.8770	 3912.00	 3950.12	-2194.14	 2985.98
     39.9030	 3868.00	 3946.94	-2234.96	 2984.13
     39.9290	 3947.00	 3943.82	-2152.84	 2982.28
     39.9550	 4007.00	 3940.76	-2089.78	 2980.43
     39.9810	 3978.00	 3937.75	-2115.77	 2978.59
     40.0070	 3951.00	 3934.80	-2139.82	 2976.74
     40.0330	 3988.00	 3931.90	-2099.92	 2974.89
     40.0590	 4081.00	 3929.06	-2004.08	 2973.04
     40.0850	 4127.00	 3926.27	-1955.29	 2971.19
     40.1110	 3969.00	 3923.55	-2110.57	 2969.35
     40.1370	 3940.00	 3920.87	-2136.89	 2967.50
     40.1630	 3992.00	 3918.26	-2082.28	 2965.65
     40.1890	 4008.00	 3915.69	-2063.71	 2963.80
     40.2150	 4025.00	 3913.19	-2044.21	 2961.95
     40.2410	 4040.00	 3910.74	-2026.76	 2960.11
     40.2670	 4103.00	 3908.35	-1961.37	 2958.26
     40.2930	 4090.00	 3906.01	-1972.03	 2956.41
     40.3190	 4009.00	 3903.73	-2050.75	 2954.56
     40.3450	 3986.00	 3901.51	-2071.53	 2952.71
     40.3710	 4001.00	 3899.35	-2054.37	 2950.87
     40.3970	 3943.00	 3897.25	-2110.27	 2949.02
     40.4230	 3946.00	 3895.20	-2105.22	 2947.17
     40.4490	 3947.00	 3893.21	-2102.23	 2945.32
     40.4750	 3878.00	 3891.28	-2169.30	 2943.47
     40.5010	 3950.00	 3889.42	-2095.44	 2941.62
     40.5270	 3987.00	 3887.61	-2056.63	 2939.78
     40.5530	 3946.00	 3885.87	-2095.89	 2937.93
     40.5790	 3972.00	 3884.19	-2068.21	 2936.08
     40.6050	 3992.00	 3882.57	-2046.59	 2934.23
     40.6310	 3918.00	 3881.01	-2119.03	 2932.38
     40.6570	 3905.00	 3879.53	-2130.55	 2930.54
     40.6830	 3971.00	 3878.10	-2063.12	 2928.69
     40.7090	 3924.00	 3876.75	-2108.77	 2926.84
     40.7350	 3921.00	 3875.46	-2110.48	 2924.99
     40.7610	 3937.00	 3874.25	-2093.27	 2923.14
     40.7870	 3972.00	 3873.10	-2057.12	 2921.30
     40.8130	 3861.00	 3872.03	-2167.05	 2919.45
     40.8390	 3881.00	 3871.04	-2146.06	 2917.60
     40.8650	 3940.00	 3870.11	-2086.13	 2915.75
     40.8910	 3973.00	 3869.27	-2052.29	 2913.90
     40.9170	 3941.00	 3868.50	-2083.52	 2912.06
     40.9430	 3957.00	 3867.82	-2066.84	 2910.21
     40.9690	 3882.00	 3867.21	-2141.23	 2908.36
     40.9950	 3833.00	 3866.77	-2189.79	 2906.58
     41.0210	 3808.00	 3866.53	-2214.55	 2904.93
     41.0470	 3964.00	 3866.38	-2058.40	 2903.28
     41.0730	 3898.00	 3866.32	-2124.34	 2901.62
     41.0990	 3910.00	 3866.36	-2112.38	 2899.97
     41.1250	 3893.00	 3866.49	-2129.51	 2898.31
     41.1510	 3901.00	 3866.72	-2121.74	 2896.66
     41.1770	 3977.00	 3867.04	-2046.06	 2895.01
     41.2030	 3915.00	 3867.48	-2108.50	 2893.35
     41.2290	 3899.00	 3868.02	-2125.04	 2891.70
     41.2550	 3958.00	 3868.67	-2066.69	 2890.05
     41.2810	 3940.00	 3869.43	-2085.45	 2888.39
     41.3070	 3904.00	 3870.31	-2122.33	 2886.74
     41.3330	 3850.00	 3871.30	-2177.32	 2885.08
     41.3590	 3925.00	 3872.43	-2103.45	 2883.43
     41.3850	 3914.00	 3873.67	-2115.69	 2881.78
     41.4110	 3970.00	 3875.05	-2061.07	 2880.12
     41.4370	 3876.00	 3876.56	-2156.58	 2878.47
     41.4630	 3930.00	 3878.22	-2104.24	 2876.81
     41.4890	 3941.00	 3880.01	-2095.03	 2875.16
     41.5150	 3846.00	 3881.95	-2191.97	 2873.51
     41.5410	 3914.00	 3884.05	-2126.07	 2871.85
     41.5670	 4036.00	 3886.30	-2006.32	 2870.20
     41.5930	 3877.00	 3888.71	-2167.73	 2868.54
     41.6190	 3874.00	 3891.29	-2173.31	 2866.89
     41.6450	 3906.00	 3894.04	-2144.06	 2865.24
     41.6710	 3925.00	 3896.98	-2128.00	 2863.58
     41.6970	 3814.00	 3900.09	-2242.11	 2861.93
     41.7230	 3844.00	 3903.39	-2215.41	 2860.27
     41.7490	 3902.00	 3906.89	-2160.91	 2858.62
     41.7750	 3819.00	 3910.58	-2247.60	 2856.97
     41.8010	 3809.00	 3914.49	-2261.51	 2855.31
     41.8270	 3939.00	 3918.60	-2135.62	 2853.66
     41.8530	 3850.00	 3922.94	-2228.96	 2852.00
     41.8790	 3879.00	 3927.50	-2204.52	 2850.35
     41.9050	 3885.00	 3932.29	-2203.31	 2848.70
     41.9310	 3821.00	 3937.32	-2272.34	 2847.04
     41.9570	 3932.00	 3942.59	-2166.61	 2845.39
     41.9830	 3876.00	 3948.11	-2228.13	 2843.73
     42.0090	 3898.00	 3953.89	-2211.91	 2842.08
     42.0350	 3900.00	 3959.93	-2215.95	 2840.43
     42.0610	 3891.00	 3966.24	-2231.26	 2838.77
     42.0870	 3836.00	 3972.82	-2292.84	 2837.12
     42.1130	 3807.00	 3979.68	-2328.70	 2835.47
     42.1390	 3864.00	 3986.82	-2278.84	 2833.81
     42.1650	 3850.00	 3994.24	-2300.26	 2832.16
     42.1910	 3821.00	 4001.96	-2336.98	 2830.50
     42.2170	 3848.00	 4009.96	-2317.98	 2828.85
     42.2430	 3873.00	 4018.26	-2301.28	 2827.20
     42.2690	 3844.00	 4026.85	-2338.87	 2825.54
     42.2950	 3861.00	 4035.74	-2330.76	 2823.89
     42.3210	 3864.00	 4044.91	-2336.93	 2822.23
     42.3470	 3889.00	 4054.37	-2321.39	 2820.58
     42.3730	 3818.00	 4064.11	-2402.13	 2818.93
     42.3990	 3824.00	 4074.12	-2406.14	 2817.27
     42.4250	 3895.00	 4084.40	-2345.42	 2815.62
     42.4510	 3843.00	 4094.93	-2407.95	 2813.96
     42.4770	 3974.00	 4105.69	-2287.71	 2812.31
     42.5030	 3938.00	 4116.67	-2334.69	 2810.66
     42.5290	 3916.00	 4127.85	-2367.87	 2809.00
     42.5550	 3924.00	 4139.20	-2371.22	 2807.35
     42.5810	 3950.00	 4150.70	-2356.72	 2805.69
     42.6070	 4118.00	 4162.31	-2200.33	 2804.04
     42.6330	 4003.00	 4174.00	-2327.02	 2802.39
     42.6590	 4109.00	 4185.73	-2232.75	 2800.73
     42.6850	 4202.00	 4197.46	-2151.48	 2799.08
     42.7110	 4221.00	 4209.14	-2144.16	 2797.42
     42.7370	 4294.00	 4220.72	-2082.74	 2795.77
     42.7630	 4304.00	 4232.15	-2084.17	 2794.12
     42.7890	 4402.00	 4243.35	-1997.38	 2792.46
     42.8150	 4526.00	 4254.29	-1884.31	 2790.81
     42.8410	 4516.00	 4264.88	-1904.90	 2789.16
     42.8670	 4534.00	 4275.06	-1897.08	 2787.50
     42.8930	 4588.00	 4284.77	-1852.79	 2785.85
     42.9190	 4628.00	 4293.93	-1821.95	 2784.19
     42.9450	 4623.00	 4302.47	-1835.49	 2782.54
     42.9710	 4674.00	 4310.33	-1792.35	 2780.89
     42.9970	 4712.00	 4317.44	-1761.46	 2779.23
     43.0230	 4735.00	 4323.73	-1744.75	 2777.58
     43.0490	 4794.00	 4329.13	-1691.15	 2775.92
     43.0750	 4778.00	 4333.61	-1711.63	 2774.27
     43.1010	 4845.00	 4337.09	-1648.11	 2772.62
     43.1270	 4911.00	 4339.55	-1584.57	 2770.96
     43.1530	 4909.00	 4340.94	-1587.96	 2769.31
     43.1790	 4942.00	 4341.23	-1555.25	 2767.65
     43.2050	 4944.00	 4340.41	-1552.43	 2766.00
     43.2310	 4988.00	 4338.47	-1506.49	 2764.35
     43.2570	 5004.00	 4335.40	-1487.42	 2762.69
     43.2830	 4997.00	 4331.22	-1490.24	 2761.04
     43.3090	 5018.00	 4325.93	-1463.95	 2759.38
     43.3350	 4980.00	 4319.57	-1495.59	 2757.73
     43.3610	 4913.00	 4312.18	-1555.20	 2756.08
     43.3870	 5029.00	 4303.79	-1430.81	 2754.42
     43.4130	 5052.00	 4294.46	-1398.48	 2752.77
     43.4390	 4925.00	 4284.23	-1515.25	 2751.11
     43.4650	 4867.00	 4273.18	-1562.20	 2749.46
     43.4910	 4832.00	 4261.36	-1585.38	 2747.81
     43.5170	 4845.00	 4248.84	-1559.86	 2746.15
     43.5430	 4690.00	 4235.69	-1701.71	 2744.50
     43.5690	 4618.00	 4221.98	-1760.00	 2742.85
     43.5950	 4670.00	 4207.78	-1693.80	 2741.19
     43.6210	 4694.00	 4193.16	-1655.18	 2739.54
     43.6470	 4564.00	 4178.18	-1770.20	 2737.88
     43.6730	 4466.00	 4162.91	-1852.93	 2736.23
     43.6990	 4404.00	 4147.42	-1899.44	 2734.58
     43.7250	 4352.00	 4131.75	-1935.77	 2732.92
     43.7510	 4242.00	 4115.97	-2029.99	 2731.27
     43.7770	 4157.00	 4100.13	-2099.15	 2729.61
     43.8030	 4154.00	 4084.27	-2086.29	 2727.96
     43.8290	 4095.00	 4068.44	-2129.46	 2726.31
     43.8550	 3990.00	 4052.68	-2218.70	 2724.65
     43.8810	 3979.00	 4037.03	-2214.05	 2723.00
     43.9070	 3909.00	 4021.51	-2268.53	 2721.34
     43.9330	 3900.00	 4006.15	-2262.17	 2719.69
     43.9590	 3845.00	 3990.99	-2302.01	 2718.04
     43.9850	 3786.00	 3976.03	-2346.05	 2716.38
     44.0110	 3823.00	 3961.31	-2294.33	 2714.73
     44.0370	 3737.00	 3946.82	-2365.84	 2713.07
     44.0630	 3781.00	 3932.60	-2307.62	 2711.42
     44.0890	 3743.00	 3918.64	-2331.66	 2709.77
     44.1150	 3604.00	 3904.96	-2456.98	 2708.11
     44.1410	 3521.00	 3891.55	-2526.57	 2706.46
     44.1670	 3678.00	 3878.43	-2356.45	 2704.80
     44.1930	 3599.00	 3865.60	-2422.62	 2703.15
     44.2190	 3538.00	 3853.06	-2471.08	 2701.50
     44.2450	 3573.00	 3840.80	-2423.82	 2699.84
     44.2710	 3546.00	 3828.83	-2438.85	 2698.19
     44.2970	 3596.00	 3817.15	-2377.17	 2696.53
     44.3230	 3525.00	 3805.74	-2436.76	 2694.88
     44.3490	 3483.00	 3794.62	-2467.64	 2693.23
     44.3750	 3541.00	 3783.76	-2398.78	 2691.57
     44.4010	 3545.00	 3773.18	-2384.20	 2689.92
     44.4270	 3534.00	 3762.86	-2384.88	 2688.27
     44.4530	 3460.00	 3752.79	-2448.81	 2686.61
     44.4790	 3443.00	 3742.98	-2456.00	 2684.96
     44.5050	 3605.00	 3733.41	-2284.43	 2683.30
     44.5310	 3465.00	 3724.08	-2415.10	 2681.65
     44.5570	 3446.00	 3714.98	-2425.00	 2680.00
     44.5830	 3406.00	 3706.11	-2456.13	 2678.34
     44.6090	 3417.00	 3698.03	-2437.05	 2677.27
     44.6350	 3511.00	 3690.32	-2335.34	 2676.34
     44.6610	 3581.00	 3682.81	-2257.83	 2675.41
     44.6870	 3507.00	 3675.50	-2324.52	 2674.48
     44.7130	 3497.00	 3668.39	-2327.41	 2673.55
     44.7390	 3527.00	 3661.47	-2290.49	 2672.62
     44.7650	 3458.00	 3654.73	-2352.75	 2671.70
     44.7910	 3459.00	 3648.16	-2345.18	 2670.77
     44.8170	 3482.00	 3641.77	-2315.79	 2669.84
     44.8430	 3362.00	 3635.54	-2429.56	 2668.91
     44.8690	 3404.00	 3629.47	-2381.49	 2667.98
     44.8950	 3429.00	 3623.55	-2350.57	 2667.05
     44.9210	 3349.00	 3617.79	-2424.81	 2666.13
     44.9470	 3403.00	 3612.17	-2365.19	 2665.20
     44.9730	 3411.00	 3606.68	-2351.70	 2664.27
     44.9990	 3432.00	 3601.33	-2325.35	 2663.34
     45.0250	 3319.00	 3596.12	-2433.14	 2662.41
     45.0510	 3317.00	 3591.02	-2430.04	 2661.48
     45.0770	 3419.00	 3586.05	-2323.07	 2660.56
     45.1030	 3350.00	 3581.20	-2387.22	 2659.63
     45.1290	 3332.00	 3576.46	-2400.48	 2658.70
     45.1550	 3322.00	 3571.82	-2405.84	 2657.77
     45.1810	 3410.00	 3567.30	-2313.32	 2656.84
     45.2070	 3450.00	 3562.87	-2268.89	 2655.91
     45.2330	 3375.00	 3558.55	-2339.57	 2654.99
     45.2590	 3312.00	 3554.32	-2398.34	 2654.06
     45.2850	 3334.00	 3550.18	-2372.20	 2653.13
     45.3110	 3350.00	 3546.13	-2352.15	 2652.20
     45.3370	 3334.00	 3542.17	-2364.19	 2651.27
     45.3630	 3377.00	 3538.29	-2317.31	 2650.34
     45.3890	 3375.00	 3534.49	-2315.51	 2649.42
     45.4150	 3321.00	 3530.77	-2365.79	 2648.49
     45.4410	 3310.00	 3527.13	-2373.15	 2647.56
     45.4670	 3305.00	 3523.56	-2374.58	 2646.63
     45.4930	 3297.00	 3520.05	-2379.07	 2645.70
     45.5190	 3319.00	 3516.62	-2353.64	 2644.77
     45.5450	 3378.00	 3513.25	-2291.27	 2643.85
     45.5710	 3426.00	 3509.95	-2239.97	 2642.92
     45.5970	 3403.00	 3506.71	-2259.73	 2641.99
     45.6230	 3337.00	 3503.53	-2322.55	 2641.06
     45.6490	 3347.00	 3500.40	-2309.42	 2640.13
     45.6750	 3396.00	 3497.33	-2257.35	 2639.20
     45.7010	 3420.00	 3494.32	-2230.34	 2638.28
     45.7270	 3402.00	 3491.36	-2245.38	 2637.35
     45.7530	 3355.00	 3488.45	-2289.47	 2636.42
     45.7790	 3385.00	 3485.59	-2256.61	 2635.49
     45.8050	 3359.00	 3482.78	-2279.80	 2634.56
     45.8310	 3350.00	 3480.01	-2286.03	 2633.63
     45.8570	 3411.00	 3477.29	-2222.31	 2632.71
     45.8830	 3318.00	 3474.62	-2312.64	 2631.78
     45.9090	 3327.00	 3471.99	-2301.01	 2630.85
     45.9350	 3359.00	 3469.39	-2266.41	 2629.92
     45.9610	 3296.00	 3466.84	-2326.86	 2628.99
     45.9870	 3339.00	 3464.33	-2281.35	 2628.06
     46.0130	 3374.00	 3461.85	-2243.87	 2627.14
     46.0390	 3380.00	 3459.42	-2235.44	 2626.21
     46.0650	 3409.00	 3457.01	-2204.03	 2625.28
     46.0910	 3343.00	 3454.65	-2267.67	 2624.35
     46.1170	 3300.00	 3452.31	-2308.33	 2623.42
     46.1430	 3373.00	 3450.01	-2233.03	 2622.49
     46.1690	 3247.00	 3447.74	-2356.76	 2621.57
     46.1950	 3301.00	 3445.50	-2300.52	 2620.64
     46.2210	 3446.00	 3443.30	-2153.32	 2619.71
     46.2470	 3348.00	 3441.12	-2249.14	 2618.78
     46.2730	 3338.00	 3438.97	-2256.99	 2617.85
     46.2990	 3342.00	 3436.84	-2250.86	 2616.93
     46.3250	 3327.00	 3434.75	-2263.77	 2616.00
     46.3510	 3339.00	 3432.68	-2249.70	 2615.07
     46.3770	 3220.00	 3430.64	-2366.66	 2614.14
     46.4030	 3252.00	 3428.62	-2332.64	 2613.21
     46.4290	 3301.00	 3426.63	-2281.65	 2612.28
     46.4550	 3417.00	 3424.66	-2163.68	 2611.36
     46.4810	 3368.00	 3422.71	-2210.73	 2610.43
     46.5070	 3353.00	 3420.79	-2223.81	 2609.50
     46.5330	 3325.00	 3418.88	-2249.90	 2608.57
     46.5590	 3381.00	 3417.00	-2192.02	 2607.64
     46.5850	 3312.00	 3415.14	-2259.16	 2606.71
     46.6110	 3350.00	 3413.31	-2219.33	 2605.79
     46.6370	 3353.00	 3411.49	-2214.51	 2604.86
     46.6630	 3395.00	 3409.69	-2170.71	 2603.93
     46.6890	 3354.00	 3407.91	-2209.93	 2603.00
     46.7150	 3338.00	 3406.15	-2224.17	 2602.07
     46.7410	 3353.00	 3404.40	-2207.42	 2601.14
     46.7670	 3299.00	 3402.68	-2259.70	 2600.22
     46.7930	 3389.00	 3400.97	-2167.99	 2599.29
     46.8190	 3284.00	 3399.28	-2271.30	 2598.36
     46.8450	 3342.00	 3397.61	-2211.63	 2597.43
     46.8710	 3393.00	 3395.95	-2158.97	 2596.50
     46.8970	 3362.00	 3394.31	-2188.33	 2595.57
     46.9230	 3253.00	 3392.68	-2295.70	 2594.65
     46.9490	 3392.00	 3391.07	-2155.09	 2593.72
     46.9750	 3283.00	 3389.47	-2262.49	 2592.79
     47.0010	 3431.00	 3387.89	-2112.91	 2591.86
     47.0270	 3421.00	 3386.33	-2121.35	 2590.93
     47.0530	 3364.00	 3384.77	-2176.79	 2590.00
     47.0790	 3333.00	 3383.23	-2206.25	 2589.08
     47.1050	 3268.00	 3381.71	-2269.73	 2588.15
     47.1310	 3349.00	 3380.20	-2187.22	 2587.22
     47.1570	 3347.00	 3378.70	-2187.72	 2586.29
     47.1830	 3328.00	 3377.21	-2205.23	 2585.36
     47.2090	 3294.00	 3375.74	-2237.76	 2584.43
     47.2350	 3371.00	 3374.28	-2159.30	 2583.51
     47.2610	 3293.00	 3372.83	-2235.85	 2582.58
     47.2870	 3285.00	 3371.39	-2242.41	 2581.65
     47.3130	 3263.00	 3369.96	-2262.98	 2580.72
     47.3390	 3333.00	 3368.55	-2191.57	 2579.79
     47.3650	 3332.00	 3367.15	-2191.17	 2578.86
     47.3910	 3308.00	 3365.75	-2213.77	 2577.94
     47.4170	 3359.00	 3364.37	-2161.39	 2577.01
     47.4430	 3291.00	 3363.00	-2228.02	 2576.08
     47.4690	 3351.00	 3361.64	-2166.66	 2575.15
     47.4950	 3334.00	 3360.29	-2182.31	 2574.22
     47.5210	 3340.00	 3358.95	-2174.97	 2573.29
     47.5470	 3255.00	 3357.62	-2258.64	 2572.37
     47.5730	 3306.00	 3356.30	-2206.32	 2571.44
     47.5990	 3377.00	 3355.00	-2134.02	 2570.51
     47.6250	 3363.00	 3353.70	-2146.72	 2569.58
     47.6510	 3350.00	 3352.40	-2158.42	 2568.65
     47.6770	 3366.00	 3351.12	-2141.14	 2567.72
     47.7030	 3338.00	 3349.85	-2167.87	 2566.80
     47.7290	 3297.00	 3348.59	-2207.61	 2565.87
     47.7550	 3327.00	 3347.33	-2176.35	 2564.94
     47.7810	 3343.00	 3346.09	-2159.11	 2564.01
     47.8070	 3274.00	 3344.85	-2226.87	 2563.08
     47.8330	 3295.00	 3343.63	-2204.65	 2562.15
     47.8590	 3246.00	 3342.41	-2252.43	 2561.23
     47.8850	 3203.00	 3341.20	-2294.22	 2560.30
     47.9110	 3318.00	 3339.99	-2178.01	 2559.37
     47.9370	 3320.00	 3338.80	-2174.82	 2558.44
     47.9630	 3245.00	 3337.61	-2248.63	 2557.51
     47.9890	 3276.00	 3336.43	-2216.45	 2556.58
     48.0150	 3352.00	 3335.61	-2139.63	 2556.00
     48.0410	 3334.00	 3335.32	-2157.34	 2555.94
     48.0670	 3432.00	 3335.03	-2059.05	 2555.88
     48.0930	 3392.00	 3334.76	-2098.78	 2555.83
     48.1190	 3220.00	 3334.49	-2270.51	 2555.77
     48.1450	 3280.00	 3334.23	-2210.25	 2555.71
     48.1710	 3347.00	 3333.98	-2143.00	 2555.65
     48.1970	 3300.00	 3333.73	-2189.75	 2555.60
     48.2230	 3243.00	 3333.50	-2246.52	 2555.54
     48.2490	 3240.00	 3333.27	-2249.29	 2555.48
     48.2750	 3254.00	 3333.04	-2235.06	 2555.43
     48.3010	 3254.00	 3332.83	-2234.85	 2555.37
     48.3270	 3297.00	 3332.62	-2191.64	 2555.31
     48.3530	 3302.00	 3332.42	-2186.44	 2555.25
     48.3790	 3307.00	 3332.22	-2181.24	 2555.20
     48.4050	 3294.00	 3332.04	-2194.06	 2555.14
     48.4310	 3242.00	 3331.86	-2245.88	 2555.08
     48.4570	 3256.00	 3331.69	-2231.71	 2555.02
     48.4830	 3292.00	 3331.52	-2195.54	 2554.97
     48.5090	 3312.00	 3331.36	-2175.38	 2554.91
     48.5350	 3285.00	 3331.21	-2202.23	 2554.85
     48.5610	 3284.00	 3331.07	-2203.09	 2554.80
     48.5870	 3287.00	 3330.93	-2199.95	 2554.74
     48.6130	 3335.00	 3330.80	-2151.82	 2554.68
     48.6390	 3300.00	 3330.68	-2186.70	 2554.62
     48.6650	 3317.00	 3330.56	-2169.58	 2554.57
     48.6910	 3301.00	 3330.45	-2185.47	 2554.51
     48.7170	 3290.00	 3330.35	-2196.37	 2554.45
     48.7430	 3239.00	 3330.25	-2247.27	 2554.39
     48.7690	 3235.00	 3330.16	-2251.18	 2554.34
     48.7950	 3212.00	 3330.08	-2274.10	 2554.28
     48.8210	 3255.00	 3330.01	-2231.03	 2554.22
     48.8470	 3271.00	 3329.94	-2214.96	 2554.17
     48.8730	 3241.00	 3329.88	-2244.90	 2554.11
     48.8990	 3219.00	 3329.82	-2266.84	 2554.05
     48.9250	 3179.00	 3329.78	-2306.80	 2553.99
     48.9510	 3339.00	 3329.74	-2146.76	 2553.94
     48.9770	 3320.00	 3329.70	-2165.72	 2553.88
     49.0030	 3247.00	 3329.68	-2238.70	 2553.82
     49.0290	 3253.00	 3329.66	-2232.68	 2553.77
     49.0550	 3218.00	 3329.65	-2267.67	 2553.71
     49.0810	 3218.00	 3329.64	-2267.66	 2553.65
     49.1070	 3399.00	 3329.64	-2086.66	 2553.59
     49.1330	 3216.00	 3329.65	-2269.67	 2553.54
     49.1590	 3264.00	 3329.67	-2221.69	 2553.48
     49.1850	 3312.00	 3329.69	-2173.71	 2553.42
     49.2110	 3318.00	 3329.73	-2167.75	 2553.36
     49.2370	 3312.00	 3329.76	-2173.78	 2553.31
     49.2630	 3240.00	 3329.81	-2245.83	 2553.25
     49.2890	 3403.00	 3329.86	-2082.88	 2553.19
     49.3150	 3355.00	 3329.93	-2130.95	 2553.14
     49.3410	 3317.00	 3329.99	-2169.01	 2553.08
     49.3670	 3214.00	 3330.07	-2272.09	 2553.02
     49.3930	 3213.00	 3330.15	-2273.17	 2552.96
     49.4190	 3306.00	 3330.25	-2180.27	 2552.91
     49.4450	 3331.00	 3330.35	-2155.37	 2552.85
     49.4710	 3327.00	 3330.45	-2159.47	 2552.79
     49.4970	 3267.00	 3330.57	-2219.59	 2552.73
     49.5230	 3337.00	 3330.69	-2149.71	 2552.68
     49.5490	 3417.00	 3330.83	-2069.85	 2552.62
     49.5750	 3370.00	 3330.97	-2116.99	 2552.56
     49.6010	 3403.00	 3331.11	-2084.13	 2552.51
     49.6270	 3337.00	 3331.27	-2150.29	 2552.45
     49.6530	 3436.00	 3331.44	-2051.46	 2552.39
     49.6790	 3410.00	 3331.61	-2077.63	 2552.33
     49.7050	 3453.00	 3331.79	-2034.81	 2552.28
     49.7310	 3211.00	 3331.99	-2277.01	 2552.22
     49.7570	 3320.00	 3332.19	-2168.21	 2552.16
     49.7830	 3356.00	 3332.40	-2132.42	 2552.10
     49.8090	 3290.00	 3332.62	-2198.64	 2552.05
     49.8350	 3335.00	 3332.85	-2153.87	 2551.99
     49.8610	 3401.00	 3333.09	-2088.11	 2551.93
     49.8870	 3358.00	 3333.34	-2131.36	 2551.88
     49.9130	 3251.00	 3333.59	-2238.61	 2551.82
     49.9390	 3337.00	 3333.86	-2152.88	 2551.76
     49.9650	 3266.00	 3334.14	-2224.16	 2551.70
     49.9910	 3374.00	 3334.43	-2116.45	 2551.65
     50.0170	 3446.00	 3334.73	-2044.75	 2551.59
     50.0430	 3348.00	 3335.04	-2143.06	 2551.53
     50.0690	 3262.00	 3335.36	-2229.38	 2551.47
     50.0950	 3307.00	 3335.69	-2184.71	 2551.42
     50.1210	 3274.00	 3336.09	-2218.11	 2551.41
     50.1470	 3365.00	 3336.50	-2127.52	 2551.41
     50.1730	 3335.00	 3336.93	-2157.95	 2551.41
     50.1990	 3282.00	 3337.36	-2211.38	 2551.41
     50.2250	 3345.00	 3337.81	-2148.83	 2551.41
     50.2510	 3335.00	 3338.27	-2159.29	 2551.41
     50.2770	 3341.00	 3338.74	-2153.76	 2551.41
     50.3030	 3304.00	 3339.23	-2191.25	 2551.41
     50.3290	 3266.00	 3339.73	-2229.75	 2551.41
     50.3550	 3307.00	 3340.24	-2189.26	 2551.41
     50.3810	 3363.00	 3340.77	-2133.79	 2551.41
     50.4070	 3412.00	 3341.31	-2085.33	 2551.41
     50.4330	 3368.00	 3341.87	-2129.89	 2551.41
     50.4590	 3292.00	 3342.44	-2206.46	 2551.41
     50.4850	 3378.00	 3343.02	-2121.04	 2551.41
     50.5110	 3365.00	 3343.62	-2134.64	 2551.41
     50.5370	 3384.00	 3344.24	-2116.26	 2551.41
     50.5630	 3352.00	 3344.87	-2148.89	 2551.41
     50.5890	 3336.00	 3345.52	-2165.54	 2551.41
     50.6150	 3403.00	 3346.19	-2099.21	 2551.41
     50.6410	 3384.00	 3346.87	-2118.89	 2551.41
     50.6670	 3323.00	 3347.57	-2180.59	 2551.41
     50.6930	 3261.00	 3348.29	-2243.31	 2551.41
     50.7190	 3289.00	 3349.02	-2216.04	 2551.41
     50.7450	 3354.00	 3349.78	-2151.80	 2551.41
     50.7710	 3363.00	 3350.55	-2143.57	 2551.41
     50.7970	 3381.00	 3351.35	-2126.37	 2551.41
     50.8230	 3395.00	 3352.17	-2113.19	 2551.41
     50.8490	 3382.00	 3353.00	-2127.02	 2551.41
     50.8750	 3380.00	 3353.86	-2129.88	 2551.41
     50.9010	 3373.00	 3354.74	-2137.76	 2551.41
     50.9270	 3379.00	 3355.64	-2132.66	 2551.41
     50.9530	 3431.00	 3356.57	-2081.59	 2551.41
     50.9790	 3426.00	 3357.52	-2087.54	 2551.41
     51.0050	 3346.00	 3358.49	-2168.51	 2551.41
     51.0310	 3359.00	 3359.49	-2156.51	 2551.41
     51.0570	 3427.00	 3360.52	-2089.54	 2551.41
     51.0830	 3401.00	 3361.57	-2116.59	 2551.41
     51.1090	 3372.00	 3362.65	-2146.67	 2551.41
     51.1350	 3366.00	 3363.76	-2153.78	 2551.41
     51.1610	 3377.00	 3364.90	-2143.92	 2551.41
     51.1870	 3403.00	 3366.06	-2119.08	 2551.41
     51.2130	 3414.00	 3367.26	-2109.28	 2551.41
     51.2390	 3435.00	 3368.49	-2089.51	 2551.41
     51.2650	 3478.00	 3369.75	-2047.77	 2551.41
     51.2910	 3465.00	 3371.05	-2062.07	 2551.41
     51.3170	 3419.00	 3372.38	-2109.40	 2551.41
     51.3430	 3423.00	 3373.74	-2106.76	 2551.41
     51.3690	 3413.00	 3375.15	-2118.17	 2551.41
     51.3950	 3391.00	 3376.59	-2141.61	 2551.41
     51.4210	 3495.00	 3378.06	-2039.08	 2551.41
     51.4470	 3433.00	 3379.58	-2102.60	 2551.41
     51.4730	 3444.00	 3381.14	-2093.16	 2551.41
     51.4990	 3490.00	 3382.75	-2048.77	 2551.41
     51.5250	 3424.00	 3384.40	-2116.42	 2551.41
     51.5510	 3476.00	 3386.09	-2066.11	 2551.41
     51.5770	 3465.00	 3387.83	-2078.85	 2551.41
     51.6030	 3455.00	 3389.62	-2090.64	 2551.41
     51.6290	 3423.00	 3391.45	-2124.47	 2551.41
     51.6550	 3474.00	 3393.34	-2075.36	 2551.41
     51.6810	 3440.00	 3395.29	-2111.31	 2551.41
     51.7070	 3473.00	 3397.28	-2080.30	 2551.41
     51.7330	 3481.00	 3399.34	-2074.36	 2551.41
     51.7590	 3504.00	 3401.45	-2053.47	 2551.41
     51.7850	 3459.00	 3403.62	-2100.64	 2551.41
     51.8110	 3398.00	 3405.86	-2163.88	 2551.41
     51.8370	 3460.00	 3408.16	-2104.18	 2551.41
     51.8630	 3401.00	 3410.52	-2165.54	 2551.41
     51.8890	 3412.00	 3412.96	-2156.98	 2551.41
     51.9150	 3523.00	 3415.46	-2048.48	 2551.41
     51.9410	 3432.00	 3418.04	-2142.06	 2551.41
     51.9670	 3348.00	 3420.69	-2228.71	 2551.41
     51.9930	 3372.00	 3423.42	-2207.44	 2551.41
     52.0190	 3401.00	 3426.23	-2181.25	 2551.41
     52.0450	 3470.00	 3429.13	-2115.15	 2551.41
     52.0710	 3396.00	 3432.10	-2192.12	 2551.41
     52.0970	 3424.00	 3435.17	-2167.19	 2551.41
     52.1230	 3481.00	 3438.33	-2113.35	 2551.41
     52.1490	 3503.00	 3441.58	-2094.60	 2551.41
     52.1750	 3546.00	 3444.92	-2054.94	 2551.41
     52.2010	 3434.00	 3448.36	-2170.38	 2551.41
     52.2270	 3562.00	 3451.91	-2045.93	 2551.41
     52.2530	 3442.00	 3455.56	-2169.58	 2551.41
     52.2790	 3436.00	 3459.31	-2179.33	 2551.41
     52.3050	 3461.00	 3463.18	-2158.20	 2551.41
     52.3310	 3465.00	 3467.15	-2158.17	 2551.41
     52.3570	 3512.00	 3471.25	-2115.27	 2551.41
     52.3830	 3417.00	 3475.46	-2214.48	 2551.41
     52.4090	 3495.00	 3479.79	-2140.81	 2551.41
     52.4350	 3540.00	 3484.24	-2100.26	 2551.41
     52.4610	 3523.00	 3488.81	-2121.83	 2551.41
     52.4870	 3501.00	 3493.52	-2148.54	 2551.41
     52.5130	 3514.00	 3498.35	-2140.37	 2551.41
     52.5390	 3531.00	 3503.31	-2128.33	 2551.41
     52.5650	 3436.00	 3508.41	-2228.43	 2551.41
     52.5910	 3483.00	 3513.63	-2186.65	 2551.41
     52.6170	 3554.00	 3518.99	-2121.01	 2551.41
     52.6430	 3463.00	 3524.48	-2217.50	 2551.41
     52.6690	 3547.00	 3530.11	-2139.13	 2551.41
     52.6950	 3533.00	 3535.86	-2158.88	 2551.41
     52.7210	 3566.00	 3541.75	-2131.77	 2551.41
     52.7470	 3518.00	 3547.76	-2185.78	 2551.41
     52.7730	 3561.00	 3553.90	-2148.92	 2551.41
     52.7990	 3600.00	 3560.15	-2116.17	 2551.41
     52.8250	 3660.00	 3566.52	-2062.54	 2551.41
     52.8510	 3602.00	 3573.00	-2127.02	 2551.41
     52.8770	 3668.00	 3579.68	-2067.70	 2551.51
     52.9030	 3603.00	 3586.51	-2139.53	 2551.67
     52.9290	 3562.00	 3593.43	-2187.45	 2551.83
     52.9550	 3584.00	 3600.42	-2172.44	 2551.99
     52.9810	 3649.00	 3607.46	-2114.48	 2552.15
     53.0070	 3608.00	 3614.55	-2162.57	 2552.31
     53.0330	 3584.00	 3621.67	-2193.69	 2552.47
     53.0590	 3577.00	 3628.80	-2207.82	 2552.63
     53.0850	 3596.00	 3635.92	-2195.94	 2552.79
     53.1110	 3644.00	 3643.01	-2155.03	 2552.95
     53.1370	 3622.00	 3650.05	-2184.07	 2553.11
     53.1630	 3615.00	 3657.01	-2198.03	 2553.27
     53.1890	 3562.00	 3663.88	-2257.90	 2553.43
     53.2150	 3578.00	 3670.62	-2248.64	 2553.59
     53.2410	 3613.00	 3677.21	-2220.23	 2553.75
     53.2670	 3567.00	 3683.62	-2272.64	 2553.91
     53.2930	 3556.00	 3689.82	-2289.84	 2554.07
     53.3190	 3661.00	 3695.79	-2190.81	 2554.23
     53.3450	 3716.00	 3701.48	-2141.50	 2554.39
     53.3710	 3659.00	 3706.89	-2203.91	 2554.55
     53.3970	 3659.00	 3711.98	-2209.00	 2554.71
     53.4230	 3675.00	 3716.72	-2197.74	 2554.87
     53.4490	 3622.00	 3721.09	-2255.11	 2555.03
     53.4750	 3621.00	 3725.07	-2260.09	 2555.19
     53.5010	 3629.00	 3728.63	-2255.65	 2555.35
     53.5270	 3642.00	 3731.77	-2245.79	 2555.51
     53.5530	 3658.00	 3734.46	-2232.48	 2555.67
     53.5790	 3644.00	 3736.70	-2248.72	 2555.83
     53.6050	 3686.00	 3738.48	-2208.50	 2555.99
     53.6310	 3678.00	 3739.79	-2217.81	 2556.15
     53.6570	 3669.00	 3740.63	-2227.65	 2556.31
     53.6830	 3672.00	 3741.01	-2225.03	 2556.48
     53.7090	 3667.00	 3740.94	-2229.96	 2556.64
     53.7350	 3711.00	 3740.42	-2185.44	 2556.80
     53.7610	 3656.00	 3739.48	-2239.50	 2556.96
     53.7870	 3639.00	 3738.11	-2255.13	 2557.12
     53.8130	 3648.00	 3736.36	-2244.38	 2557.28
     53.8390	 3687.00	 3734.23	-2203.25	 2557.44
     53.8650	 3643.00	 3731.76	-2244.78	 2557.60
     53.8910	 3678.00	 3728.97	-2206.99	 2557.76
     53.9170	 3642.00	 3725.88	-2239.90	 2557.92
     53.9430	 3654.00	 3722.53	-2224.55	 2558.08
     53.9690	 3726.00	 3718.94	-2148.96	 2558.24
     53.9950	 3683.00	 3715.15	-2188.17	 2558.40
     54.0210	 3693.00	 3711.18	-2174.20	 2558.56
     54.0470	 3683.00	 3707.07	-2180.09	 2558.72
     54.0730	 3680.00	 3702.83	-2178.85	 2558.88
     54.0990	 3667.00	 3698.51	-2187.53	 2559.04
     54.1250	 3614.00	 3694.12	-2236.14	 2559.20
     54.1510	 3782.00	 3689.69	-2063.71	 2559.36
     54.1770	 3768.00	 3685.24	-2073.26	 2559.52
     54.2030	 3704.00	 3680.80	-2132.82	 2559.68
     54.2290	 3691.00	 3676.39	-2141.41	 2559.84
     54.2550	 3685.00	 3672.02	-2143.04	 2560.00
     54.2810	 3720.00	 3667.72	-2103.74	 2560.16
     54.3070	 3831.00	 3663.50	-1988.52	 2560.32
     54.3330	 3681.00	 3659.37	-2134.39	 2560.48
     54.3590	 3640.00	 3655.36	-2171.38	 2560.64
     54.3850	 3698.00	 3651.46	-2109.48	 2560.80
     54.4110	 3609.00	 3647.70	-2194.72	 2560.96
     54.4370	 3673.00	 3644.08	-2127.10	 2561.12
     54.4630	 3667.00	 3640.61	-2129.63	 2561.28
     54.4890	 3642.00	 3637.30	-2151.32	 2561.44
     54.5150	 3773.00	 3634.15	-2017.17	 2561.60
     54.5410	 3688.00	 3631.17	-2099.19	 2561.76
     54.5670	 3582.00	 3628.36	-2202.38	 2561.92
     54.5930	 3678.00	 3625.74	-2103.76	 2562.08
     54.6190	 3651.00	 3623.29	-2128.31	 2562.24
     54.6450	 3659.00	 3621.02	-2118.04	 2562.40
     54.6710	 3700.00	 3618.95	-2074.97	 2562.56
     54.6970	 3714.00	 3617.06	-2059.08	 2562.72
     54.7230	 3705.00	 3615.36	-2066.38	 2562.88
     54.7490	 3674.00	 3613.85	-2095.87	 2563.04
     54.7750	 3651.00	 3612.53	-2117.55	 2563.20
     54.8010	 3743.00	 3611.40	-2024.42	 2563.36
     54.8270	 3688.00	 3610.47	-2078.49	 2563.53
     54.8530	 3662.00	 3609.73	-2103.75	 2563.69
     54.8790	 3552.00	 3609.18	-2213.20	 2563.85
     54.9050	 3737.00	 3608.83	-2027.85	 2564.01
     54.9310	 3697.00	 3608.55	-2067.57	 2564.17
     54.9570	 3643.00	 3608.59	-2121.61	 2564.33
     54.9830	 3732.00	 3608.76	-2032.78	 2564.49
     55.0090	 3635.00	 3609.19	-2130.21	 2564.65
     55.0350	 3841.00	 3609.81	-1924.83	 2564.81
     55.0610	 3711.00	 3610.62	-2055.64	 2564.97
     55.0870	 3754.00	 3611.64	-2013.66	 2565.13
     55.1130	 3829.00	 3612.85	-1939.87	 2565.29
     55.1390	 3740.00	 3614.25	-2030.27	 2565.45
     55.1650	 3646.00	 3615.86	-2125.88	 2565.61
     55.1910	 3664.00	 3617.67	-2109.69	 2565.77
     55.2170	 3677.00	 3619.68	-2098.70	 2565.93
     55.2430	 3682.00	 3621.90	-2095.92	 2566.09
     55.2690	 3726.00	 3624.32	-2054.34	 2566.25
     55.2950	 3790.00	 3626.95	-1992.97	 2566.41
     55.3210	 3715.00	 3629.78	-2070.80	 2566.57
     55.3470	 3728.00	 3632.83	-2060.85	 2566.73
     55.3730	 3725.00	 3636.10	-2067.12	 2566.89
     55.3990	 3750.00	 3639.58	-2045.60	 2567.05
     55.4250	 3823.00	 3643.28	-1976.30	 2567.21
     55.4510	 3714.00	 3647.21	-2089.23	 2567.37
     55.4770	 3771.00	 3651.36	-2036.38	 2567.53
     55.5030	 3886.00	 3655.74	-1925.76	 2567.69
     55.5290	 3869.00	 3660.36	-1947.38	 2567.85
     55.5550	 3760.00	 3665.21	-2061.23	 2568.01
     55.5810	 3808.00	 3670.31	-2018.33	 2568.17
     55.6070	 3869.00	 3675.66	-1962.68	 2568.33
     55.6330	 3780.00	 3681.25	-2057.27	 2568.49
     55.6590	 3748.00	 3687.10	-2095.12	 2568.65
     55.6850	 3777.00	 3693.21	-2072.23	 2568.81
     55.7110	 3823.00	 3699.59	-2032.61	 2568.97
     55.7370	 3791.00	 3706.24	-2071.26	 2569.13
     55.7630	 3762.00	 3713.16	-2107.18	 2569.29
     55.7890	 3806.00	 3720.36	-2070.38	 2569.45
     55.8150	 3814.00	 3727.85	-2069.87	 2569.61
     55.8410	 3810.00	 3735.63	-2081.65	 2569.77
     55.8670	 3809.00	 3743.70	-2090.72	 2569.93
     55.8930	 3792.00	 3752.08	-2116.10	 2570.09
     55.9190	 3780.00	 3760.76	-2136.78	 2570.25
     55.9450	 3846.00	 3769.75	-2079.77	 2570.41
     55.9710	 3934.00	 3779.05	-2001.07	 2570.58
     55.9970	 3929.00	 3788.67	-2015.69	 2570.74
     56.0230	 3901.00	 3798.61	-2053.63	 2570.90
     56.0490	 3893.00	 3808.88	-2071.90	 2571.06
     56.0750	 3904.00	 3819.47	-2071.49	 2571.22
     56.1010	 3956.00	 3830.39	-2030.41	 2571.38
     56.1270	 3905.00	 3841.63	-2092.65	 2571.54
     56.1530	 3866.00	 3853.21	-2143.23	 2571.70
     56.1790	 3939.00	 3865.11	-2082.13	 2571.86
     56.2050	 3980.00	 3877.33	-2053.35	 2572.02
     56.2310	 3969.00	 3889.87	-2076.89	 2572.18
     56.2570	 3897.00	 3902.72	-2161.74	 2572.34
     56.2830	 3890.00	 3915.89	-2181.91	 2572.50
     56.3090	 3990.00	 3929.34	-2095.36	 2572.66
     56.3350	 3987.00	 3943.08	-2112.10	 2572.82
     56.3610	 3995.00	 3957.09	-2118.11	 2572.98
     56.3870	 4098.00	 3971.35	-2029.37	 2573.14
     56.4130	 3980.00	 3985.85	-2161.87	 2573.30
     56.4390	 3967.00	 4000.55	-2189.57	 2573.46
     56.4650	 3996.00	 4015.44	-2175.46	 2573.62
     56.4910	 3974.00	 4030.49	-2212.51	 2573.78
     56.5170	 3986.00	 4045.66	-2215.68	 2573.94
     56.5430	 4076.00	 4060.92	-2140.94	 2574.10
     56.5690	 4105.00	 4076.23	-2127.25	 2574.26
     56.5950	 4109.00	 4091.54	-2138.56	 2574.42
     56.6210	 4114.00	 4107.32	-2149.34	 2575.09
     56.6470	 4138.00	 4123.17	-2141.19	 2575.91
     56.6730	 4006.00	 4138.87	-2288.89	 2576.74
     56.6990	 4048.00	 4154.36	-2262.38	 2577.57
     56.7250	 4254.00	 4169.59	-2071.61	 2578.39
     56.7510	 4097.00	 4184.50	-2243.52	 2579.22
     56.7770	 4053.00	 4199.01	-2302.03	 2580.04
     56.8030	 3988.00	 4213.06	-2381.08	 2580.87
     56.8290	 4090.00	 4226.58	-2292.60	 2581.69
     56.8550	 4155.00	 4239.51	-2240.53	 2582.52
     56.8810	 4057.00	 4251.77	-2350.79	 2583.35
     56.9070	 4113.00	 4263.30	-2306.32	 2584.17
     56.9330	 4204.00	 4274.03	-2226.05	 2585.00
     56.9590	 4150.00	 4283.90	-2289.92	 2585.82
     56.9850	 4280.00	 4292.85	-2168.87	 2586.65
     57.0110	 4211.00	 4300.83	-2245.85	 2587.47
     57.0370	 4223.00	 4307.79	-2240.81	 2588.30
     57.0630	 4224.00	 4313.67	-2245.69	 2589.13
     57.0890	 4077.00	 4318.46	-2397.48	 2589.95
     57.1150	 4145.00	 4322.12	-2333.14	 2590.78
     57.1410	 4195.00	 4324.64	-2285.66	 2591.60
     57.1670	 4244.00	 4325.98	-2238.00	 2592.43
     57.1930	 4130.00	 4326.17	-2352.19	 2593.26
     57.2190	 4329.00	 4325.20	-2152.22	 2594.08
     57.2450	 4217.00	 4323.08	-2262.10	 2594.91
     57.2710	 4241.00	 4319.84	-2234.86	 2595.73
     57.2970	 4219.00	 4315.50	-2252.52	 2596.56
     57.3230	 4408.00	 4310.11	-2058.13	 2597.38
     57.3490	 4316.00	 4303.70	-2143.72	 2598.21
     57.3750	 4260.00	 4296.33	-2192.35	 2599.04
     57.4010	 4210.00	 4288.06	-2234.08	 2599.86
     57.4270	 4178.00	 4278.93	-2256.95	 2600.69
     57.4530	 4081.00	 4269.02	-2344.04	 2601.51
     57.4790	 4118.00	 4258.39	-2296.41	 2602.34
     57.5050	 4169.00	 4247.10	-2234.12	 2603.17
     57.5310	 4110.00	 4235.23	-2281.25	 2603.99
     57.5570	 4169.00	 4222.84	-2209.86	 2604.82
     57.5830	 4144.00	 4210.00	-2222.02	 2605.64
     57.6090	 4091.00	 4196.77	-2261.79	 2606.47
     57.6350	 4212.00	 4183.23	-2127.25	 2607.29
     57.6610	 4160.00	 4169.42	-2165.44	 2608.12
     57.6870	 4070.00	 4155.42	-2241.44	 2608.95
     57.7130	 4164.00	 4141.28	-2133.30	 2609.77
     57.7390	 4084.00	 4127.04	-2199.06	 2610.60
     57.7650	 4025.00	 4112.77	-2243.79	 2611.42
     57.7910	 4091.00	 4098.51	-2163.53	 2612.25
     57.8170	 4103.00	 4084.29	-2137.31	 2613.08
     57.8430	 4028.00	 4070.16	-2198.18	 2613.90
     57.8690	 4038.00	 4056.15	-2174.17	 2614.73
     57.8950	 4019.00	 4042.29	-2179.31	 2615.55
     57.9210	 4141.00	 4028.62	-2043.64	 2616.38
     57.9470	 4165.00	 4015.15	-2006.17	 2617.20
     57.9730	 4088.00	 4001.91	-2069.93	 2618.03
     57.9990	 3993.00	 3988.91	-2151.93	 2618.86
     58.0250	 4056.00	 3976.18	-2076.20	 2619.68
     58.0510	 4078.00	 3963.72	-2041.74	 2620.51
     58.0770	 4028.00	 3951.55	-2079.57	 2621.33
     58.1030	 4123.00	 3939.68	-1972.70	 2622.16
     58.1290	 4057.00	 3928.11	-2027.13	 2622.98
     58.1550	 3964.00	 3916.85	-2108.87	 2623.81
     58.1810	 4069.00	 3905.90	-1992.92	 2624.64
     58.2070	 4047.00	 3895.26	-2004.28	 2625.46
     58.2330	 3956.00	 3884.94	-2084.96	 2626.29
     58.2590	 3932.00	 3874.94	-2098.96	 2627.11
     58.2850	 3986.00	 3865.25	-2035.27	 2627.94
     58.3110	 3956.00	 3855.87	-2055.89	 2628.77
     58.3370	 3963.00	 3846.80	-2039.82	 2629.59
     58.3630	 3991.00	 3838.04	-2003.06	 2630.42
     58.3890	 3994.00	 3829.57	-1991.59	 2631.24
     58.4150	 3999.00	 3821.41	-1978.43	 2632.07
     58.4410	 3949.00	 3813.54	-2020.56	 2632.89
     58.4670	 3916.00	 3805.95	-2045.97	 2633.72
     58.4930	 3866.00	 3798.65	-2088.67	 2634.55
     58.5190	 3772.00	 3791.62	-2175.64	 2635.37
     58.5450	 3813.00	 3784.86	-2127.88	 2636.20
     58.5710	 3844.00	 3778.37	-2090.39	 2637.02
     58.5970	 3849.00	 3772.13	-2079.15	 2637.85
     58.6230	 3884.00	 3766.15	-2038.17	 2638.68
     58.6490	 3943.00	 3760.42	-1973.44	 2639.50
     58.6750	 3900.00	 3754.92	-2010.94	 2640.33
     58.7010	 3805.00	 3749.66	-2100.68	 2641.15
     58.7270	 3812.00	 3744.63	-2088.65	 2641.98
     58.7530	 3869.00	 3739.82	-2026.84	 2642.80
     58.7790	 3812.00	 3735.22	-2079.24	 2643.62
     58.8050	 3750.00	 3730.51	-2136.53	 2644.11
     58.8310	 3786.00	 3726.00	-2096.02	 2644.60
     58.8570	 3782.00	 3721.70	-2095.72	 2645.09
     58.8830	 3786.00	 3717.59	-2087.61	 2645.58
     58.9090	 3795.00	 3713.68	-2074.70	 2646.07
     58.9350	 3788.00	 3709.95	-2077.97	 2646.56
     58.9610	 3735.00	 3706.40	-2127.42	 2647.05
     58.9870	 3753.00	 3703.03	-2106.05	 2647.54
     59.0130	 3773.00	 3699.84	-2082.86	 2648.04
     59.0390	 3716.00	 3696.82	-2136.84	 2648.53
     59.0650	 3763.00	 3693.96	-2086.98	 2649.02
     59.0910	 3789.00	 3691.26	-2058.28	 2649.51
     59.1170	 3804.00	 3688.72	-2040.74	 2650.00
     59.1430	 3715.00	 3686.34	-2127.36	 2650.49
     59.1690	 3734.00	 3684.11	-2106.13	 2650.98
     59.1950	 3777.00	 3682.03	-2061.05	 2651.47
     59.2210	 3707.00	 3680.09	-2129.11	 2651.96
     59.2470	 3702.00	 3678.29	-2132.31	 2652.45
     59.2730	 3718.00	 3676.64	-2114.66	 2652.94
     59.2990	 3613.00	 3675.12	-2218.14	 2653.43
     59.3250	 3702.00	 3673.74	-2127.76	 2653.92
     59.3510	 3732.00	 3672.49	-2096.51	 2654.41
     59.3770	 3713.00	 3671.37	-2114.39	 2654.91
     59.4030	 3576.00	 3670.38	-2250.40	 2655.40
     59.4290	 3672.00	 3669.51	-2153.53	 2655.89
     59.4550	 3718.00	 3668.77	-2106.79	 2656.38
     59.4810	 3582.00	 3668.16	-2242.18	 2656.87
     59.5070	 3639.00	 3667.66	-2184.68	 2657.36
     59.5330	 3664.00	 3667.29	-2159.31	 2657.85
     59.5590	 3710.00	 3667.03	-2113.05	 2658.34
     59.5850	 3770.00	 3666.90	-2052.92	 2658.83
     59.6110	 3714.00	 3666.88	-2108.90	 2659.32
     59.6370	 3637.00	 3666.97	-2185.99	 2659.81
     59.6630	 3567.00	 3667.18	-2256.20	 2660.30
     59.6890	 3670.00	 3667.51	-2153.53	 2660.79
     59.7150	 3658.00	 3667.95	-2165.97	 2661.28
     59.7410	 3592.00	 3668.51	-2232.53	 2661.78
     59.7670	 3573.00	 3668.84	-2251.86	 2661.93
     59.7930	 3513.00	 3668.90	-2311.92	 2661.70
     59.8190	 3543.00	 3669.07	-2282.09	 2661.47
     59.8450	 3661.00	 3669.36	-2164.38	 2661.24
     59.8710	 3713.00	 3669.76	-2112.78	 2661.01
     59.8970	 3715.00	 3670.28	-2111.30	 2660.78
     59.9230	 3545.00	 3670.91	-2281.93	 2660.55
     59.9490	 3565.00	 3671.65	-2262.67	 2660.32
     59.9750	 3527.00	 3672.51	-2301.53	 2660.08
     60.0010	 3626.00	 3673.49	-2203.51	 2659.85
     60.0270	 3573.00	 3674.58	-2257.60	 2659.62
     60.0530	 3522.00	 3675.79	-2309.81	 2659.39
     60.0790	 3582.00	 3677.12	-2251.14	 2659.16
     60.1050	 3574.00	 3678.57	-2260.59	 2658.93
     60.1310	 3490.00	 3680.14	-2346.16	 2658.70
     60.1570	 3522.00	 3681.84	-2315.86	 2658.47
     60.1830	 3486.00	 3683.66	-2353.68	 2658.24
     60.2090	 3412.00	 3685.61	-2429.63	 2658.00
     60.2350	 3486.00	 3687.69	-2357.71	 2657.77
     60.2610	 3625.00	 3689.89	-2220.91	 2657.54
     60.2870	 3395.00	 3692.23	-2453.25	 2657.31
     60.3130	 3485.00	 3694.70	-2365.72	 2657.08
     60.3390	 3410.00	 3697.32	-2443.34	 2656.85
     60.3650	 3384.00	 3700.07	-2472.09	 2656.62
     60.3910	 3345.00	 3702.96	-2513.98	 2656.39
     60.4170	 3526.00	 3706.00	-2336.02	 2656.16
     60.4430	 3574.00	 3709.19	-2291.21	 2655.92
     60.4690	 3517.00	 3712.52	-2351.54	 2655.69
     60.4950	 3484.00	 3716.02	-2388.04	 2655.46
     60.5210	 3544.00	 3719.67	-2331.69	 2655.23
     60.5470	 3488.00	 3723.48	-2391.50	 2655.00
     60.5730	 3419.00	 3727.46	-2464.48	 2654.77
     60.5990	 3449.00	 3731.61	-2438.63	 2654.54
     60.6250	 3471.00	 3735.93	-2420.95	 2654.31
     60.6510	 3604.00	 3740.43	-2292.45	 2654.08
     60.6770	 3524.00	 3745.11	-2377.13	 2653.84
     60.7030	 3542.00	 3749.98	-2364.00	 2653.61
     60.7290	 3507.00	 3755.04	-2404.06	 2653.38
     60.7550	 3531.00	 3760.30	-2385.32	 2653.15
     60.7810	 3513.00	 3765.77	-2408.79	 2652.92
     60.8070	 3541.00	 3771.44	-2386.46	 2652.69
     60.8330	 3543.00	 3777.32	-2390.34	 2652.46
     60.8590	 3563.00	 3783.42	-2376.44	 2652.23
     60.8850	 3524.00	 3789.75	-2421.77	 2652.00
     60.9110	 3473.00	 3796.32	-2479.34	 2651.76
     60.9370	 3522.00	 3803.12	-2437.14	 2651.53
     60.9630	 3546.00	 3810.16	-2420.18	 2651.30
     60.9890	 3614.00	 3817.46	-2359.48	 2651.07
     61.0150	 3594.00	 3825.02	-2387.04	 2650.84
     61.0410	 3540.00	 3832.84	-2448.86	 2650.61
     61.0670	 3573.00	 3840.94	-2423.96	 2650.38
     61.0930	 3546.00	 3849.33	-2459.35	 2650.15
     61.1190	 3522.00	 3858.00	-2492.02	 2649.92
     61.1450	 3522.00	 3866.97	-2500.99	 2649.68
     61.1710	 3518.00	 3876.25	-2514.27	 2649.45
     61.1970	 3473.00	 3885.84	-2568.86	 2649.22
     61.2230	 3585.00	 3895.76	-2466.78	 2648.99
     61.2490	 3579.00	 3906.01	-2483.03	 2648.76
     61.2750	 3511.00	 3916.60	-2561.62	 2648.53
     61.3010	 3558.00	 3927.55	-2525.57	 2648.30
     61.3270	 3559.00	 3938.85	-2535.87	 2648.07
     61.3530	 3580.00	 3950.52	-2526.54	 2647.84
     61.3790	 3597.00	 3962.57	-2521.59	 2647.60
     61.4050	 3593.00	 3975.01	-2538.03	 2647.37
     61.4310	 3566.00	 3987.84	-2577.86	 2647.14
     61.4570	 3557.00	 4001.08	-2600.10	 2646.91
     61.4830	 3634.00	 4014.72	-2536.74	 2646.68
     61.5090	 3654.00	 4028.79	-2530.81	 2646.45
     61.5350	 3605.00	 4043.29	-2594.31	 2646.22
     61.5610	 3609.00	 4058.22	-2605.24	 2645.99
     61.5870	 3649.00	 4073.59	-2580.61	 2645.76
     61.6130	 3669.00	 4089.41	-2576.43	 2645.52
     61.6390	 3682.00	 4105.68	-2579.70	 2645.29
     61.6650	 3643.00	 4122.41	-2635.43	 2645.06
     61.6910	 3608.00	 4139.59	-2687.61	 2644.83
     61.7170	 3717.00	 4157.24	-2596.26	 2644.60
     61.7430	 3777.00	 4175.34	-2554.36	 2644.37
     61.7690	 3797.00	 4193.90	-2552.92	 2644.14
     61.7950	 3781.00	 4212.91	-2587.93	 2643.91
     61.8210	 3795.00	 4232.37	-2593.39	 2643.68
     61.8470	 3863.00	 4252.27	-2545.29	 2643.44
     61.8730	 3835.00	 4272.60	-2593.62	 2643.21
     61.8990	 3935.00	 4293.34	-2514.36	 2642.98
     61.9250	 3927.00	 4314.47	-2543.49	 2642.75
     61.9510	 4002.00	 4335.98	-2490.00	 2642.52
     61.9770	 4042.00	 4357.85	-2471.87	 2642.29
     62.0030	 4133.00	 4380.04	-2403.06	 2642.06
     62.0290	 4203.00	 4402.52	-2355.54	 2641.83
     62.0550	 4165.00	 4425.25	-2416.27	 2641.60
     62.0810	 4238.00	 4448.19	-2366.21	 2641.36
     62.1070	 4293.00	 4471.30	-2334.32	 2641.13
     62.1330	 4472.00	 4494.53	-2178.55	 2640.90
     62.1590	 4521.00	 4517.81	-2152.83	 2640.67
     62.1850	 4528.00	 4541.09	-2169.11	 2640.44
     62.2110	 4556.00	 4564.30	-2164.32	 2640.21
     62.2370	 4762.00	 4587.36	-1981.38	 2639.98
     62.2630	 4919.00	 4610.20	-1847.22	 2639.75
     62.2890	 4885.00	 4632.74	-1903.76	 2639.52
     62.3150	 4866.00	 4654.89	-1944.91	 2639.28
     62.3410	 5020.00	 4676.56	-1812.58	 2639.05
     62.3670	 5164.00	 4697.65	-1689.67	 2638.82
     62.3930	 5027.00	 4718.08	-1847.10	 2638.59
     62.4190	 5256.00	 4737.73	-1637.75	 2638.36
     62.4450	 5347.00	 4756.51	-1565.53	 2638.13
     62.4710	 5498.00	 4774.33	-1432.35	 2637.90
     62.4970	 5452.00	 4791.07	-1495.09	 2637.67
     62.5230	 5501.00	 4806.66	-1461.68	 2637.44
     62.5490	 5682.00	 4820.98	-1295.00	 2637.21
     62.5750	 5587.00	 4833.96	-1402.98	 2636.97
     62.6010	 5732.00	 4845.51	-1269.53	 2636.74
     62.6270	 5765.00	 4855.55	-1246.57	 2636.51
     62.6530	 5966.00	 4864.02	-1054.04	 2636.28
     62.6790	 6019.00	 4870.86	-1007.88	 2636.05
     62.7050	 6011.00	 4876.02	-1021.04	 2635.82
     62.7310	 5964.00	 4879.47	-1071.49	 2635.59
     62.7570	 5933.00	 4881.17	-1104.19	 2635.36
     62.7830	 6146.00	 4881.10	 -891.12	 2635.13
     62.8090	 6030.00	 4879.28	-1005.30	 2634.89
     62.8350	 6074.00	 4875.71	 -957.73	 2634.66
     62.8610	 6131.00	 4870.40	 -895.42	 2634.43
     62.8870	 5973.00	 4863.39	-1046.41	 2634.20
     62.9130	 6018.00	 4854.73	 -992.75	 2633.97
     62.9390	 5911.00	 4844.46	-1089.48	 2633.74
     62.9650	 5851.00	 4832.66	-1137.68	 2633.51
     62.9910	 5866.00	 4819.40	-1109.42	 2633.28
     63.0170	 5899.00	 4804.74	-1061.76	 2633.05
     63.0430	 5991.00	 4788.78	 -953.80	 2632.81
     63.0690	 5820.00	 4771.61	-1107.63	 2632.58
     63.0950	 5700.00	 4753.33	-1209.35	 2632.35
     63.1210	 5685.00	 4734.02	-1205.04	 2632.12
     63.1470	 5719.00	 4713.79	-1150.81	 2631.89
     63.1730	 5590.00	 4692.74	-1258.76	 2631.66
     63.1990	 5509.00	 4670.96	-1317.98	 2631.43
     63.2250	 5320.00	 4648.55	-1484.57	 2631.20
     63.2510	 5281.00	 4625.61	-1500.63	 2630.97
     63.2770	 5224.00	 4602.23	-1534.25	 2630.73
     63.3030	 5140.00	 4578.49	-1594.51	 2630.50
     63.3290	 5110.00	 4554.49	-1600.51	 2630.27
     63.3550	 4989.00	 4530.29	-1697.31	 2630.04
     63.3810	 4861.00	 4505.98	-1801.00	 2629.81
     63.4070	 4864.00	 4481.61	-1773.63	 2629.58
     63.4330	 4829.00	 4457.27	-1784.29	 2629.35
     63.4590	 4716.00	 4433.00	-1873.02	 2629.12
     63.4850	 4628.00	 4408.87	-1936.89	 2628.89
     63.5110	 4560.00	 4384.91	-1980.93	 2628.65
     63.5370	 4469.00	 4361.17	-2048.19	 2628.42
     63.5630	 4373.00	 4337.71	-2120.73	 2628.19
     63.5890	 4380.00	 4314.53	-2090.55	 2627.96
     63.6150	 4245.00	 4291.69	-2202.71	 2627.73
     63.6410	 4136.00	 4269.20	-2289.22	 2627.50
     63.6670	 4158.00	 4247.09	-2245.11	 2627.27
     63.6930	 4123.00	 4225.37	-2258.39	 2627.04
     63.7190	 4078.00	 4204.07	-2282.09	 2626.81
     63.7450	 3990.00	 4183.19	-2349.21	 2626.57
     63.7710	 3938.00	 4162.74	-2380.76	 2626.34
     63.7970	 3880.00	 4142.74	-2418.76	 2626.11
     63.8230	 3780.00	 4123.18	-2499.20	 2625.88
     63.8490	 3790.00	 4104.08	-2470.10	 2625.65
     63.8750	 3815.00	 4085.42	-2426.44	 2625.42
     63.9010	 3789.00	 4067.22	-2434.24	 2625.19
     63.9270	 3829.00	 4049.46	-2376.48	 2624.96
     63.9530	 3861.00	 4032.15	-2327.17	 2624.73
     63.9790	 3810.00	 4015.29	-2361.31	 2624.49
     64.0050	 3733.00	 3998.85	-2421.87	 2624.26
     64.0310	 3709.00	 3982.86	-2429.88	 2624.03
     64.0570	 3667.00	 3967.28	-2456.30	 2623.80
     64.0830	 3600.00	 3952.11	-2508.13	 2623.57
     64.1090	 3650.00	 3937.36	-2443.38	 2623.34
     64.1350	 3679.00	 3923.00	-2400.02	 2623.11
     64.1610	 3620.00	 3909.04	-2445.06	 2622.88
     64.1870	 3581.00	 3895.46	-2470.48	 2622.65
     64.2130	 3558.00	 3882.25	-2480.27	 2622.41
     64.2390	 3588.00	 3869.41	-2437.43	 2622.18
     64.2650	 3664.00	 3856.92	-2348.94	 2621.95
     64.2910	 3641.00	 3844.77	-2359.79	 2621.72
     64.3170	 3667.00	 3832.96	-2321.98	 2621.49
     64.3430	 3626.00	 3821.48	-2351.50	 2621.26
     64.3690	 3536.00	 3810.32	-2430.34	 2621.03
     64.3950	 3605.00	 3799.47	-2350.49	 2620.80
     64.4210	 3556.00	 3788.92	-2388.94	 2620.57
     64.4470	 3589.00	 3778.65	-2345.67	 2620.33
     64.4730	 3563.00	 3768.67	-2361.69	 2620.10
     64.4990	 3528.00	 3758.97	-2386.99	 2619.87
     64.5250	 3563.00	 3749.53	-2342.55	 2619.64
     64.5510	 3521.00	 3740.35	-2375.37	 2619.41
     64.5770	 3594.00	 3731.42	-2293.44	 2619.18
     64.6030	 3649.00	 3722.73	-2229.75	 2618.95
     64.6290	 3547.00	 3714.28	-2323.30	 2618.72
     64.6550	 3500.00	 3706.05	-2362.07	 2618.49
     64.6810	 3495.00	 3698.04	-2359.06	 2618.25
     64.7070	 3504.00	 3690.25	-2342.27	 2618.02
     64.7330	 3586.00	 3682.67	-2252.69	 2617.79
     64.7590	 3518.00	 3675.28	-2313.30	 2617.56
     64.7850	 3513.00	 3668.09	-2311.11	 2617.33
     64.8110	 3457.00	 3661.09	-2360.11	 2617.10
     64.8370	 3481.00	 3654.27	-2329.29	 2616.87
     64.8630	 3461.00	 3647.63	-2342.65	 2616.64
     64.8890	 3509.00	 3641.15	-2288.17	 2616.41
     64.9150	 3479.00	 3634.85	-2311.87	 2616.17
     64.9410	 3492.00	 3628.70	-2292.72	 2615.94
     64.9670	 3487.00	 3622.71	-2291.73	 2615.71
     64.9930	 3449.00	 3616.86	-2323.88	 2615.48
     65.0190	 3401.00	 3611.17	-2366.19	 2615.25
     65.0450	 3454.00	 3605.61	-2307.63	 2615.02
     65.0710	 3477.00	 3600.20	-2279.22	 2614.79
     65.0970	 3484.00	 3594.91	-2266.93	 2614.56
     65.1230	 3482.00	 3589.75	-2263.77	 2614.33
     65.1490	 3441.00	 3584.72	-2299.74	 2614.09
     65.1750	 3389.00	 3579.81	-2346.83	 2613.86
     65.2010	 3376.00	 3575.01	-2355.03	 2613.63
     65.2270	 3366.00	 3570.33	-2360.35	 2613.40
     65.2530	 3484.00	 3565.76	-2237.78	 2613.17
     65.2790	 3432.00	 3561.29	-2285.31	 2612.94
     65.3050	 3432.00	 3556.93	-2280.95	 2612.71
     65.3310	 3370.00	 3552.67	-2338.69	 2612.48
     65.3570	 3452.00	 3548.50	-2252.52	 2612.25
     65.3830	 3417.00	 3544.43	-2283.45	 2612.02
     65.4090	 3461.00	 3540.46	-2235.48	 2611.78
     65.4350	 3391.00	 3536.57	-2301.59	 2611.55
     65.4610	 3406.00	 3532.76	-2282.78	 2611.32
     65.4870	 3294.00	 3529.04	-2391.06	 2611.09
     65.5130	 3512.00	 3525.41	-2169.43	 2610.86
     65.5390	 3399.00	 3521.85	-2278.87	 2610.63
     65.5650	 3367.00	 3518.36	-2307.38	 2610.40
     65.5910	 3377.00	 3514.96	-2293.98	 2610.17
     65.6170	 3359.00	 3511.62	-2308.64	 2609.94
     65.6430	 3452.00	 3508.36	-2212.38	 2609.70
     65.6690	 3442.00	 3505.16	-2219.18	 2609.47
     65.6950	 3340.00	 3502.03	-2318.05	 2609.24
     65.7210	 3405.00	 3498.96	-2249.98	 2609.01
     65.7470	 3326.00	 3495.96	-2325.98	 2608.78
     65.7730	 3400.00	 3493.02	-2249.04	 2608.55
     65.7990	 3441.00	 3490.13	-2205.15	 2608.32
     65.8250	 3377.00	 3487.31	-2266.33	 2608.09
     65.8510	 3404.00	 3484.54	-2236.56	 2607.86
     65.8770	 3452.00	 3481.83	-2185.85	 2607.62
     65.9030	 3432.00	 3479.17	-2203.19	 2607.39
     65.9290	 3406.00	 3476.56	-2226.58	 2607.16
     65.9550	 3509.00	 3474.00	-2121.02	 2606.93
     65.9810	 3518.00	 3471.49	-2109.51	 2606.70
     66.0070	 3346.00	 3469.03	-2279.05	 2606.47
     66.0330	 3369.00	 3466.61	-2253.63	 2606.24
     66.0590	 3348.00	 3464.24	-2272.26	 2606.01
     66.0850	 3443.00	 3461.91	-2174.93	 2605.78
     66.1110	 3426.00	 3459.63	-2189.65	 2605.54
     66.1370	 3422.00	 3457.39	-2191.41	 2605.31
     66.1630	 3399.00	 3455.19	-2212.21	 2605.08
     66.1890	 3474.00	 3453.03	-2135.05	 2604.85
     66.2150	 3481.00	 3450.91	-2125.93	 2604.62
     66.2410	 3397.00	 3448.83	-2207.85	 2604.39
     66.2670	 3380.00	 3446.78	-2222.80	 2604.16
     66.2930	 3481.00	 3444.77	-2119.79	 2603.93
     66.3190	 3333.00	 3442.79	-2265.81	 2603.70
     66.3450	 3312.00	 3440.85	-2284.87	 2603.46
     66.3710	 3386.00	 3438.95	-2208.97	 2603.23
     66.3970	 3412.00	 3437.07	-2181.09	 2603.00
     66.4230	 3382.00	 3435.23	-2209.25	 2602.77
     66.4490	 3355.00	 3433.42	-2234.44	 2602.54
     66.4750	 3417.00	 3431.64	-2170.66	 2602.31
     66.5010	 3368.00	 3429.89	-2217.91	 2602.08
     66.5270	 3399.00	 3428.16	-2185.18	 2601.85
     66.5530	 3412.00	 3426.47	-2170.49	 2601.62
     66.5790	 3351.00	 3424.80	-2229.82	 2601.38
     66.6050	 3429.00	 3423.17	-2150.19	 2601.15
     66.6310	 3483.00	 3421.55	-2094.57	 2600.92
     66.6570	 3405.00	 3419.97	-2170.99	 2600.69
     66.6830	 3306.00	 3418.41	-2268.43	 2600.46
     66.7090	 3345.00	 3416.87	-2227.89	 2600.23
     66.7350	 3382.00	 3415.36	-2189.38	 2600.00
     66.7610	 3331.00	 3413.87	-2238.89	 2599.77
     66.7870	 3338.00	 3412.41	-2230.43	 2599.54
     66.8130	 3375.00	 3410.96	-2191.98	 2599.30
     66.8390	 3398.00	 3409.54	-2167.56	 2599.07
     66.8650	 3360.00	 3408.15	-2204.17	 2598.84
     66.8910	 3314.00	 3406.77	-2248.79	 2598.61
     66.9170	 3359.00	 3405.41	-2202.43	 2598.38
     66.9430	 3353.00	 3404.08	-2207.10	 2598.15
     66.9690	 3306.00	 3402.76	-2252.78	 2597.92
     66.9950	 3281.00	 3401.47	-2276.49	 2597.69
     67.0210	 3362.00	 3400.19	-2194.21	 2597.46
     67.0470	 3375.00	 3398.94	-2179.96	 2597.22
     67.0730	 3344.00	 3397.70	-2209.72	 2596.99
     67.0990	 3394.00	 3396.48	-2158.50	 2596.76
     67.1250	 3363.00	 3395.27	-2188.29	 2596.53
     67.1510	 3443.00	 3394.09	-2107.11	 2596.30
     67.1770	 3403.00	 3392.92	-2145.94	 2596.07
     67.2030	 3408.00	 3391.77	-2139.79	 2595.84
     67.2290	 3365.00	 3390.64	-2181.66	 2595.61
     67.2550	 3324.00	 3389.52	-2221.54	 2595.38
     67.2810	 3367.00	 3388.42	-2177.44	 2595.14
     67.3070	 3376.00	 3387.33	-2167.35	 2594.91
     67.3330	 3423.00	 3386.26	-2119.28	 2594.68
     67.3590	 3423.00	 3385.20	-2118.22	 2594.45
     67.3850	 3380.00	 3384.16	-2160.18	 2594.22
     67.4110	 3336.00	 3383.14	-2203.16	 2593.99
     67.4370	 3269.00	 3382.13	-2269.15	 2593.76
     67.4630	 3333.00	 3381.13	-2204.15	 2593.53
     67.4890	 3306.00	 3380.15	-2230.17	 2593.30
     67.5150	 3320.00	 3379.18	-2215.20	 2593.06
     67.5410	 3295.00	 3378.22	-2239.24	 2592.83
     67.5670	 3329.00	 3377.28	-2204.30	 2592.60
     67.5930	 3467.00	 3376.35	-2065.37	 2592.37
     67.6190	 3420.00	 3375.43	-2111.45	 2592.14
     67.6450	 3357.00	 3374.07	-2173.09	 2591.91
     67.6710	 3280.00	 3373.18	-2249.20	 2591.68
     67.6970	 3352.00	 3372.30	-2176.32	 2591.45
     67.7230	 3335.00	 3371.20	-2192.22	 2591.22
     67.7490	 3409.00	 3370.35	-2117.37	 2590.98
     67.7750	 3367.00	 3369.51	-2158.53	 2590.75
     67.8010	 3350.00	 3368.70	-2174.72	 2590.55
     67.8270	 3390.00	 3367.96	-2133.98	 2590.39
     67.8530	 3330.00	 3367.23	-2193.25	 2590.23
     67.8790	 3378.00	 3366.51	-2144.53	 2590.08
     67.9050	 3374.00	 3365.80	-2147.82	 2589.92
     67.9310	 3303.00	 3365.10	-2218.12	 2589.77
     67.9570	 3332.00	 3364.42	-2188.44	 2589.61
     67.9830	 3312.00	 3363.74	-2207.76	 2589.46
     68.0090	 3236.00	 3363.08	-2283.10	 2589.30
     68.0350	 3318.00	 3362.42	-2200.44	 2589.15
     68.0610	 3162.00	 3361.78	-2355.80	 2588.99
     68.0870	 3305.00	 3361.15	-2212.17	 2588.83
     68.1130	 3365.00	 3360.53	-2151.55	 2588.68
     68.1390	 3384.00	 3359.91	-2131.93	 2588.52
     68.1650	 3292.00	 3359.31	-2223.33	 2588.37
     68.1910	 3225.00	 3358.72	-2289.74	 2588.21
     68.2170	 3222.00	 3358.14	-2292.16	 2588.06
     68.2430	 3342.00	 3357.57	-2171.59	 2587.90
     68.2690	 3357.00	 3357.01	-2156.03	 2587.74
     68.2950	 3360.00	 3356.46	-2152.48	 2587.59
     68.3210	 3287.00	 3355.91	-2224.93	 2587.43
     68.3470	 3269.00	 3355.38	-2242.40	 2587.28
     68.3730	 3271.00	 3354.86	-2239.88	 2587.12
     68.3990	 3266.00	 3354.35	-2244.37	 2586.97
     68.4250	 3303.00	 3353.85	-2206.87	 2586.81
     68.4510	 3313.00	 3353.36	-2196.38	 2586.66
     68.4770	 3272.00	 3352.87	-2236.89	 2586.50
     68.5030	 3324.00	 3352.40	-2184.42	 2586.34
     68.5290	 3350.00	 3351.94	-2157.96	 2586.19
     68.5550	 3293.00	 3351.49	-2214.51	 2586.03
     68.5810	 3354.00	 3351.04	-2153.06	 2585.88
     68.6070	 3359.00	 3350.61	-2147.63	 2585.72
     68.6330	 3329.00	 3350.19	-2177.21	 2585.57
     68.6590	 3384.00	 3349.77	-2121.79	 2585.41
     68.6850	 3343.00	 3349.37	-2162.39	 2585.26
     68.7110	 3372.00	 3348.98	-2133.00	 2585.10
     68.7370	 3383.00	 3348.59	-2121.61	 2584.94
     68.7630	 3312.00	 3348.22	-2192.24	 2584.79
     68.7890	 3338.00	 3347.85	-2165.87	 2584.63
     68.8150	 3409.00	 3347.50	-2094.52	 2584.48
     68.8410	 3325.00	 3347.16	-2178.18	 2584.32
     68.8670	 3299.00	 3346.82	-2203.84	 2584.17
     68.8930	 3322.00	 3346.50	-2180.52	 2584.01
     68.9190	 3289.00	 3346.19	-2213.21	 2583.86
     68.9450	 3323.00	 3345.89	-2178.91	 2583.70
     68.9710	 3362.00	 3345.60	-2139.62	 2583.54
     68.9970	 3329.00	 3345.32	-2172.34	 2583.39
     69.0230	 3407.00	 3345.05	-2094.07	 2583.23
     69.0490	 3427.00	 3344.79	-2073.81	 2583.08
     69.0750	 3347.00	 3344.54	-2153.56	 2582.92
     69.1010	 3367.00	 3344.30	-2133.32	 2582.77
     69.1270	 3422.00	 3344.08	-2078.10	 2582.61
     69.1530	 3394.00	 3343.87	-2105.89	 2582.46
     69.1790	 3383.00	 3343.66	-2116.68	 2582.30
     69.2050	 3413.00	 3343.47	-2086.49	 2582.14
     69.2310	 3428.00	 3343.30	-2071.32	 2581.99
     69.2570	 3409.00	 3343.13	-2090.15	 2581.83
     69.2830	 3392.00	 3342.98	-2107.00	 2581.68
     69.3090	 3415.00	 3342.84	-2083.86	 2581.52
     69.3350	 3449.00	 3342.71	-2049.73	 2581.37
     69.3610	 3471.00	 3342.59	-2027.61	 2581.21
     69.3870	 3368.00	 3342.49	-2130.51	 2581.05
     69.4130	 3270.00	 3342.40	-2228.42	 2580.90
     69.4390	 3307.00	 3342.33	-2191.35	 2580.74
     69.4650	 3341.00	 3342.27	-2157.29	 2580.59
     69.4910	 3344.00	 3342.22	-2154.24	 2580.43
     69.5170	 3376.00	 3342.19	-2122.21	 2580.28
     69.5430	 3357.00	 3342.17	-2141.19	 2580.12
     69.5690	 3317.00	 3342.17	-2181.19	 2579.97
     69.5950	 3337.00	 3342.19	-2161.21	 2579.81
     69.6210	 3349.00	 3342.21	-2149.23	 2579.65
     69.6470	 3381.00	 3342.26	-2117.28	 2579.50
     69.6730	 3386.00	 3342.32	-2112.34	 2579.34
     69.6990	 3374.00	 3342.40	-2124.42	 2579.19
     69.7250	 3362.00	 3342.49	-2136.51	 2579.03
     69.7510	 3327.00	 3342.60	-2171.62	 2578.88
     69.7770	 3341.00	 3342.73	-2157.75	 2578.72
     69.8030	 3373.00	 3342.87	-2125.89	 2578.57
     69.8290	 3375.00	 3343.03	-2124.05	 2578.41
     69.8550	 3360.00	 3343.22	-2139.24	 2578.25
     69.8810	 3306.00	 3343.42	-2193.44	 2578.10
     69.9070	 3263.00	 3343.63	-2236.65	 2577.94
     69.9330	 3339.00	 3343.87	-2160.89	 2577.79
     69.9590	 3327.00	 3344.13	-2173.15	 2577.63
     69.9850	 3319.00	 3344.40	-2181.42	 2577.48
     70.0110	 3322.00	 3344.70	-2178.72	 2577.32
     70.0370	 3304.00	 3345.01	-2197.03	 2577.17
     70.0630	 3274.00	 3345.34	-2227.36	 2577.01
     70.0890	 3343.00	 3345.70	-2158.72	 2576.85
     70.1150	 3318.00	 3346.07	-2184.09	 2576.70
     70.1410	 3298.00	 3346.46	-2204.48	 2576.54
     70.1670	 3260.00	 3346.88	-2242.90	 2576.39
     70.1930	 3296.00	 3347.31	-2207.33	 2576.23
     70.2190	 3332.00	 3347.76	-2171.78	 2576.08
     70.2450	 3239.00	 3348.23	-2265.25	 2575.92
     70.2710	 3333.00	 3348.72	-2171.74	 2575.77
     70.2970	 3249.00	 3349.23	-2256.25	 2575.61
     70.3230	 3279.00	 3349.75	-2226.77	 2575.45
     70.3490	 3375.00	 3350.29	-2131.31	 2575.30
     70.3750	 3352.00	 3350.85	-2154.87	 2575.14
     70.4010	 3324.00	 3351.43	-2183.45	 2574.99
     70.4270	 3409.00	 3352.02	-2099.04	 2574.83
     70.4530	 3347.00	 3352.62	-2161.64	 2574.68
     70.4790	 3323.00	 3353.23	-2186.25	 2574.52
     70.5050	 3340.00	 3353.85	-2169.87	 2574.36
     70.5310	 3335.00	 3354.49	-2175.51	 2574.21
     70.5570	 3351.00	 3355.13	-2160.15	 2574.05
     70.5830	 3225.00	 3355.77	-2286.79	 2573.90
     70.6090	 3379.00	 3356.42	-2133.44	 2573.74
     70.6350	 3323.00	 3357.07	-2190.09	 2573.59
     70.6610	 3254.00	 3357.71	-2259.73	 2573.43
     70.6870	 3327.00	 3358.35	-2187.38	 2573.28
     70.7130	 3279.00	 3358.99	-2236.01	 2573.12
     70.7390	 3354.00	 3359.62	-2161.64	 2572.96
     70.7650	 3343.00	 3360.23	-2173.25	 2572.81
     70.7910	 3281.00	 3360.82	-2235.84	 2572.65
     70.8170	 3324.00	 3361.40	-2193.42	 2572.50
     70.8430	 3302.00	 3361.96	-2215.98	 2572.34
     70.8690	 3380.00	 3362.49	-2138.51	 2572.19
     70.8950	 3294.00	 3362.99	-2225.01	 2572.03
     70.9210	 3334.00	 3363.45	-2185.47	 2571.88
     70.9470	 3360.00	 3363.89	-2159.91	 2571.72
     70.9730	 3288.00	 3364.28	-2232.30	 2571.56
     70.9990	 3341.00	 3364.64	-2179.66	 2571.41
     71.0250	 3376.00	 3364.94	-2144.96	 2571.25
     71.0510	 3438.00	 3365.21	-2083.23	 2571.10
     71.0770	 3410.00	 3365.42	-2111.44	 2570.94
     71.1030	 3402.00	 3365.58	-2119.60	 2570.79
     71.1290	 3437.00	 3365.69	-2084.71	 2570.63
     71.1550	 3368.00	 3365.75	-2153.77	 2570.48
     71.1810	 3348.00	 3365.75	-2173.77	 2570.32
     71.2070	 3354.00	 3365.69	-2167.71	 2570.16
     71.2330	 3379.00	 3365.58	-2142.60	 2570.01
     71.2590	 3349.00	 3365.41	-2172.43	 2569.85
     71.2850	 3311.00	 3365.18	-2210.20	 2569.70
     71.3110	 3239.00	 3364.90	-2281.92	 2569.54
     71.3370	 3379.00	 3364.56	-2141.58	 2569.39
     71.3630	 3365.00	 3364.18	-2155.20	 2569.23
     71.3890	 3402.00	 3363.74	-2117.76	 2569.08
     71.4150	 3448.00	 3363.25	-2071.27	 2568.92
     71.4410	 3401.00	 3362.71	-2117.73	 2568.76
     71.4670	 3397.00	 3362.14	-2121.16	 2568.61
     71.4930	 3333.00	 3361.52	-2184.54	 2568.45
     71.5190	 3324.00	 3360.86	-2192.88	 2568.30
     71.5450	 3403.00	 3360.17	-2113.19	 2568.14
     71.5710	 3433.00	 3359.45	-2082.47	 2567.99
     71.5970	 3384.00	 3358.69	-2130.71	 2567.83
     71.6230	 3297.00	 3357.92	-2216.94	 2567.67
     71.6490	 3373.00	 3356.86	-2139.88	 2567.26
     71.6750	 3444.00	 3354.45	-2066.47	 2565.51
     71.7010	 3378.00	 3352.02	-2130.04	 2563.75
     71.7270	 3383.00	 3349.58	-2122.60	 2562.00
     71.7530	 3455.00	 3347.13	-2048.15	 2560.24
     71.7790	 3450.00	 3344.68	-2050.70	 2558.49
     71.8050	 3412.00	 3342.23	-2086.25	 2556.74
     71.8310	 3373.00	 3339.77	-2122.79	 2554.98
     71.8570	 3333.00	 3337.32	-2160.34	 2553.23
     71.8830	 3321.00	 3334.88	-2169.90	 2551.47
     71.9090	 3350.00	 3332.45	-2138.47	 2549.72
     71.9350	 3354.00	 3330.02	-2132.04	 2547.97
     71.9610	 3354.00	 3327.61	-2129.63	 2546.21
     71.9870	 3441.00	 3325.22	-2040.24	 2544.46
     72.0130	 3468.00	 3322.84	-2010.86	 2542.70
     72.0390	 3410.00	 3320.48	-2066.50	 2540.95
     72.0650	 3297.00	 3318.14	-2177.16	 2539.19
     72.0910	 3247.00	 3315.82	-2224.84	 2537.44
     72.1170	 3354.00	 3313.52	-2115.54	 2535.69
     72.1430	 3400.00	 3311.25	-2067.27	 2533.93
     72.1690	 3407.00	 3309.00	-2058.02	 2532.18
     72.1950	 3407.00	 3306.78	-2055.80	 2530.42
     72.2210	 3394.00	 3304.58	-2066.60	 2528.67
     72.2470	 3354.00	 3302.42	-2104.44	 2526.92
     72.2730	 3321.00	 3300.27	-2135.29	 2525.16
     72.2990	 3328.00	 3298.16	-2126.18	 2523.41
     72.3250	 3323.00	 3296.08	-2129.10	 2521.65
     72.3510	 3333.00	 3294.03	-2117.05	 2519.90
     72.3770	 3248.00	 3292.00	-2200.02	 2518.15
     72.4030	 3241.00	 3290.01	-2205.03	 2516.39
     72.4290	 3345.00	 3288.05	-2099.07	 2514.64
     72.4550	 3282.00	 3286.12	-2160.14	 2512.88
     72.4810	 3266.00	 3284.22	-2174.24	 2511.13
     72.5070	 3246.00	 3282.35	-2192.37	 2509.37
     72.5330	 3280.00	 3280.51	-2156.53	 2507.62
     72.5590	 3309.00	 3278.71	-2125.73	 2505.87
     72.5850	 3245.00	 3276.93	-2187.95	 2504.11
     72.6110	 3282.00	 3275.19	-2149.21	 2502.36
     72.6370	 3271.00	 3273.48	-2158.50	 2500.60
     72.6630	 3346.00	 3271.81	-2081.83	 2498.85
     72.6890	 3277.00	 3270.17	-2149.19	 2497.09
     72.7150	 3255.00	 3268.56	-2169.58	 2495.34
     72.7410	 3249.00	 3266.98	-2174.00	 2493.59
     72.7670	 3308.00	 3265.44	-2113.46	 2491.83
     72.7930	 3299.00	 3263.94	-2120.96	 2490.08
     72.8190	 3203.00	 3262.46	-2215.48	 2488.32
     72.8450	 3228.00	 3261.02	-2189.04	 2486.57
     72.8710	 3220.00	 3259.62	-2195.64	 2484.82
     72.8970	 3255.00	 3258.25	-2159.27	 2483.06
     72.9230	 3289.00	 3256.91	-2123.93	 2481.31
     72.9490	 3269.00	 3255.61	-2142.63	 2479.55
     72.9750	 3309.00	 3254.34	-2101.36	 2477.80
     73.0010	 3239.00	 3253.11	-2170.13	 2476.05
     73.0270	 3150.00	 3251.92	-2257.94	 2474.29
     73.0530	 3258.00	 3250.76	-2148.78	 2472.54
     73.0790	 3274.00	 3249.63	-2131.65	 2470.78
     73.1050	 3264.00	 3248.54	-2140.56	 2469.03
     73.1310	 3376.00	 3247.49	-2027.51	 2467.27
     73.1570	 3336.00	 3246.47	-2066.49	 2465.52
     73.1830	 3274.00	 3245.49	-2127.51	 2463.77
     73.2090	 3232.00	 3244.54	-2168.56	 2462.01
     73.2350	 3230.00	 3243.63	-2169.65	 2460.26
     73.2610	 3289.00	 3242.75	-2109.77	 2458.50
     73.2870	 3361.00	 3241.91	-2036.93	 2456.75
     73.3130	 3207.00	 3241.10	-2190.12	 2455.00
     73.3390	 3159.00	 3240.33	-2237.35	 2453.24
     73.3650	 3277.00	 3239.59	-2118.61	 2451.49
     73.3910	 3223.00	 3238.89	-2171.91	 2449.73
     73.4170	 3265.00	 3238.21	-2129.23	 2447.98
     73.4430	 3363.00	 3237.57	-2030.59	 2446.22
     73.4690	 3222.00	 3236.95	-2170.97	 2444.47
     73.4950	 3298.00	 3236.37	-2094.39	 2442.72
     73.5210	 3298.00	 3235.81	-2093.83	 2440.96
     73.5470	 3393.00	 3233.54	-1996.56	 2439.21
     73.5730	 3265.00	 3233.03	-2124.05	 2437.45
     73.5990	 3248.00	 3232.55	-2140.57	 2435.70
     73.6250	 3265.00	 3232.09	-2123.11	 2433.95
     73.6510	 3276.00	 3230.78	-2110.80	 2432.19
     73.6770	 3322.00	 3230.35	-2064.37	 2430.44
     73.7030	 3321.00	 3229.94	-2064.96	 2428.68
     73.7290	 3241.00	 3229.54	-2144.56	 2426.93
     73.7550	 3154.00	 3229.15	-2231.17	 2425.17
     73.7810	 3173.00	 3228.76	-2211.78	 2423.42
     73.8070	 3187.00	 3228.37	-2197.39	 2421.67
     73.8330	 3156.00	 3227.98	-2228.00	 2419.91
     73.8590	 3236.00	 3227.59	-2147.61	 2418.16
     73.8850	 3319.00	 3227.19	-2064.21	 2416.40
     73.9110	 3303.00	 3226.78	-2079.80	 2414.65
     73.9370	 3194.00	 3226.35	-2188.37	 2412.90
     73.9630	 3108.00	 3225.91	-2273.93	 2411.14
     73.9890	 3155.00	 3225.44	-2226.46	 2409.39
     74.0150	 3246.00	 3224.95	-2134.97	 2407.63
     74.0410	 3260.00	 3224.43	-2120.45	 2405.88
     74.0670	 3252.00	 3223.88	-2127.90	 2404.13
     74.0930	 3181.00	 3223.30	-2198.32	 2402.37
     74.1190	 3193.00	 3222.68	-2185.70	 2400.62
     74.1450	 3162.00	 3222.02	-2216.04	 2398.86
     74.1710	 3111.00	 3221.31	-2266.33	 2397.11
     74.1970	 3138.00	 3220.57	-2238.59	 2395.35
     74.2230	 3161.00	 3219.78	-2214.80	 2393.60
     74.2490	 3129.00	 3218.94	-2245.96	 2391.85
     74.2750	 3148.00	 3218.06	-2226.08	 2390.09
     74.3010	 3191.00	 3217.12	-2182.14	 2388.34
     74.3270	 3211.00	 3216.14	-2161.16	 2386.58
     74.3530	 3215.00	 3215.11	-2156.13	 2384.83
     74.3790	 3240.00	 3214.03	-2130.05	 2383.08
     74.4050	 3246.00	 3212.90	-2122.92	 2381.32
     74.4310	 3197.00	 3211.73	-2170.75	 2379.57
     74.4570	 3180.00	 3210.50	-2186.52	 2377.81
     74.4830	 3208.00	 3209.23	-2157.25	 2376.06
     74.5090	 3172.00	 3207.92	-2191.94	 2374.30
     74.5350	 3127.00	 3206.56	-2235.58	 2372.55
     74.5610	 3139.00	 3205.16	-2222.18	 2370.80
     74.5870	 3099.00	 3203.71	-2260.73	 2369.04
     74.6130	 3091.00	 3202.23	-2267.25	 2367.29
     74.6390	 3167.00	 3200.70	-2189.72	 2365.53
     74.6650	 3161.00	 3199.13	-2194.15	 2363.78
     74.6910	 3111.00	 3197.53	-2242.55	 2362.03
     74.7170	 3083.00	 3195.89	-2268.91	 2360.27
     74.7430	 3124.00	 3194.21	-2226.23	 2358.52
     74.7690	 3185.00	 3192.49	-2163.51	 2356.76
     74.7950	 3149.00	 3190.73	-2197.75	 2355.01
     74.8210	 3206.00	 3188.93	-2138.95	 2353.26
     74.8470	 3150.00	 3187.10	-2193.12	 2351.50
     74.8730	 3140.00	 3185.22	-2201.24	 2349.75
     74.8990	 3154.00	 3183.30	-2185.32	 2347.99
     74.9250	 3166.00	 3181.34	-2171.36	 2346.24
     74.9510	 3177.00	 3179.03	-2158.05	 2344.18
     74.9770	 3126.00	 3176.47	-2206.49	 2341.92
     75.0030	 3139.00	 3173.87	-2190.89	 2339.66
     75.0290	 3124.00	 3171.22	-2203.24	 2337.41
     75.0550	 3156.00	 3168.51	-2168.53	 2335.15
     75.0810	 3122.00	 3165.75	-2199.77	 2332.89
     75.1070	 3180.00	 3162.94	-2138.96	 2330.63
     75.1330	 3212.00	 3160.07	-2104.09	 2328.38
     75.1590	 3028.00	 3157.14	-2285.16	 2326.12
     75.1850	 3174.00	 3154.15	-2136.17	 2323.86
     75.2110	 3230.00	 3151.10	-2077.12	 2321.61
     75.2370	 3197.00	 3147.99	-2107.01	 2319.35
     75.2630	 3136.00	 3144.82	-2164.84	 2317.09
     75.2890	 3191.00	 3141.59	-2106.61	 2314.84
     75.3150	 3086.00	 3138.29	-2208.31	 2312.58
     75.3410	 3106.00	 3134.94	-2184.96	 2310.32
     75.3670	 3087.00	 3131.52	-2200.54	 2308.06
     75.3930	 3177.00	 3128.05	-2107.07	 2305.81
     75.4190	 3135.00	 3124.53	-2145.55	 2303.55
     75.4450	 3152.00	 3120.95	-2124.97	 2301.29
     75.4710	 3083.00	 3117.32	-2190.34	 2299.04
     75.4970	 3064.00	 3113.64	-2205.66	 2296.78
     75.5230	 3077.00	 3109.91	-2188.93	 2294.52
     75.5490	 3016.00	 3106.14	-2246.16	 2292.27
     75.5750	 3002.00	 3102.33	-2256.35	 2290.01
     75.6010	 3026.00	 3098.49	-2228.51	 2287.75
     75.6270	 3048.00	 3094.61	-2202.63	 2285.50
     75.6530	 3032.00	 3090.71	-2214.73	 2283.24
     75.6790	 3117.00	 3086.77	-2125.79	 2280.98
     75.7050	 3069.00	 3082.82	-2169.84	 2278.72
     75.7310	 3136.00	 3078.85	-2098.87	 2276.47
     75.7570	 3014.00	 3074.87	-2216.89	 2274.21
     75.7830	 3070.00	 3070.88	-2156.90	 2271.95
     75.8090	 3123.00	 3066.88	-2099.90	 2269.70
     75.8350	 3055.00	 3062.88	-2163.90	 2267.44
     75.8610	 3013.00	 3058.88	-2201.90	 2265.18
     75.8870	 3046.00	 3054.88	-2164.90	 2262.93
     75.9130	 3073.00	 3050.88	-2133.90	 2260.67
     75.9390	 3013.00	 3046.90	-2189.92	 2258.41
     75.9650	 3016.00	 3042.92	-2182.94	 2256.15
     75.9910	 3014.00	 3038.96	-2180.98	 2253.90
     76.0170	 3047.00	 3035.02	-2144.04	 2251.64
     76.0430	 3109.00	 3031.09	-2078.11	 2249.38
     76.0690	 2994.00	 3027.18	-2189.20	 2247.13
     76.0950	 3045.00	 3023.29	-2134.31	 2244.87
     76.1210	 3011.00	 3019.43	-2164.45	 2242.61
     76.1470	 3082.00	 3015.59	-2089.61	 2240.36
     76.1730	 3075.00	 3011.77	-2092.79	 2238.10
     76.1990	 3080.00	 3007.98	-2084.00	 2235.84
     76.2250	 3115.00	 3004.21	-2045.23	 2233.59
     76.2510	 2988.00	 3000.48	-2168.50	 2231.33
     76.2770	 2973.00	 2996.77	-2179.79	 2229.07
     76.3030	 2960.00	 2993.08	-2189.10	 2226.81
     76.3290	 3014.00	 2989.43	-2131.45	 2224.56
     76.3550	 2922.00	 2985.80	-2219.82	 2222.30
     76.3810	 2960.00	 2982.21	-2178.23	 2220.04
     76.4070	 2961.00	 2978.64	-2173.66	 2217.79
     76.4330	 2938.00	 2975.10	-2193.12	 2215.53
     76.4590	 3036.00	 2971.58	-2091.60	 2213.27
     76.4850	 2948.00	 2968.10	-2176.12	 2211.02
     76.5110	 2944.00	 2964.64	-2176.66	 2208.76
     76.5370	 3099.00	 2961.21	-2018.23	 2206.50
     76.5630	 2998.00	 2957.81	-2115.83	 2204.24
     76.5890	 2928.00	 2954.43	-2182.45	 2201.99
     76.6150	 2933.00	 2951.08	-2174.10	 2199.73
     76.6410	 2973.00	 2947.76	-2130.78	 2197.47
     76.6670	 2976.00	 2944.44	-2124.46	 2195.19
     76.6930	 2953.00	 2940.97	-2143.99	 2192.74
     76.7190	 2907.00	 2937.53	-2186.55	 2190.29
     76.7450	 2936.00	 2934.11	-2154.13	 2187.84
     76.7710	 2929.00	 2930.72	-2157.74	 2185.40
     76.7970	 2896.00	 2927.35	-2187.37	 2182.95
     76.8230	 2903.00	 2924.00	-2177.02	 2180.50
     76.8490	 2927.00	 2920.67	-2149.69	 2178.05
     76.8750	 2919.00	 2917.37	-2154.39	 2175.60
     76.9010	 2900.00	 2914.08	-2170.10	 2173.15
     76.9270	 2902.00	 2910.82	-2164.84	 2170.70
     76.9530	 2913.00	 2907.58	-2150.60	 2168.25
     76.9790	 2870.00	 2904.35	-2190.37	 2165.80
     77.0050	 2850.00	 2901.14	-2207.16	 2163.35
     77.0310	 2860.00	 2897.96	-2193.98	 2160.90
     77.0570	 2864.00	 2894.79	-2186.81	 2158.46
     77.0830	 2919.00	 2891.63	-2128.65	 2156.01
     77.1090	 2885.00	 2888.50	-2159.52	 2153.56
     77.1350	 2850.00	 2885.38	-2191.40	 2151.11
     77.1610	 2879.00	 2882.27	-2159.29	 2148.66
     77.1870	 2881.00	 2879.18	-2154.20	 2146.21
     77.2130	 2854.00	 2876.11	-2178.13	 2143.76
     77.2390	 2852.00	 2873.05	-2177.07	 2141.31
     77.2650	 2890.00	 2870.01	-2136.03	 2138.86
     77.2910	 2851.00	 2866.98	-2172.00	 2136.41
     77.3170	 2844.00	 2863.96	-2175.98	 2133.96
     77.3430	 2799.00	 2860.95	-2217.97	 2131.52
     77.3690	 2827.00	 2857.96	-2186.98	 2129.07
     77.3950	 2861.00	 2854.98	-2150.00	 2126.62
     77.4210	 2884.00	 2852.01	-2124.03	 2124.17
     77.4470	 2839.00	 2849.06	-2166.08	 2121.72
     77.4730	 2855.00	 2846.11	-2147.14	 2119.27
     77.4990	 2851.00	 2843.18	-2148.20	 2116.82
     77.5250	 2819.00	 2840.26	-2177.28	 2114.37
     77.5510	 2815.00	 2837.35	-2178.37	 2111.92
     77.5770	 2878.00	 2834.44	-2112.46	 2109.47
     77.6030	 2864.00	 2831.55	-2123.57	 2107.02
     77.6290	 2897.00	 2828.67	-2087.69	 2104.58
     77.6550	 2920.00	 2825.80	-2061.82	 2102.13
     77.6810	 2823.00	 2822.93	-2155.95	 2099.68
     77.7070	 2856.00	 2820.08	-2120.10	 2097.23
     77.7330	 2887.00	 2817.23	-2086.25	 2094.78
     77.7590	 2825.00	 2814.39	-2145.41	 2092.33
     77.7850	 2833.00	 2811.56	-2134.58	 2089.88
     77.8110	 2877.00	 2808.74	-2087.76	 2087.43
     77.8370	 2854.00	 2805.92	-2107.94	 2084.98
     77.8630	 2847.00	 2803.11	-2112.13	 2082.53
     77.8890	 2814.00	 2800.31	-2142.33	 2080.08
     77.9150	 2790.00	 2797.52	-2163.54	 2077.64
     77.9410	 2772.00	 2794.73	-2178.75	 2075.19
     77.9670	 2853.00	 2791.95	-2094.97	 2072.74
     77.9930	 2798.00	 2789.18	-2147.20	 2070.29
     78.0190	 2794.00	 2786.41	-2148.43	 2067.84
     78.0450	 2739.00	 2783.65	-2200.67	 2065.39
     78.0710	 2818.00	 2782.50	-2120.52	 2064.54
     78.0970	 2729.00	 2782.36	-2209.38	 2064.71
     78.1230	 2778.00	 2782.24	-2160.26	 2064.88
     78.1490	 2816.00	 2782.11	-2122.13	 2065.04
     78.1750	 2720.00	 2782.00	-2218.02	 2065.21
     78.2010	 2818.00	 2781.89	-2119.91	 2065.38
     78.2270	 2756.00	 2781.78	-2181.80	 2065.55
     78.2530	 2791.00	 2781.68	-2146.70	 2065.71
     78.2790	 2803.00	 2781.59	-2134.61	 2065.88
     78.3050	 2826.00	 2781.50	-2111.52	 2066.05
     78.3310	 2808.00	 2781.41	-2129.43	 2066.22
     78.3570	 2761.00	 2781.33	-2176.35	 2066.38
     78.3830	 2801.00	 2781.25	-2136.27	 2066.55
     78.4090	 2796.00	 2781.18	-2141.20	 2066.72
     78.4350	 2804.00	 2781.11	-2133.13	 2066.89
     78.4610	 2810.00	 2781.04	-2127.06	 2067.05
     78.4870	 2799.00	 2780.98	-2138.00	 2067.22
     78.5130	 2754.00	 2780.93	-2182.95	 2067.39
     78.5390	 2762.00	 2780.87	-2174.89	 2067.56
     78.5650	 2779.00	 2780.82	-2157.84	 2067.72
     78.5910	 2886.00	 2780.78	-2050.80	 2067.89
     78.6170	 2842.00	 2780.73	-2094.75	 2068.06
     78.6430	 2932.00	 2780.70	-2004.72	 2068.23
     78.6690	 2991.00	 2780.66	-1945.68	 2068.39
     78.6950	 2912.00	 2780.63	-2024.65	 2068.56
     78.7210	 2814.00	 2780.60	-2122.62	 2068.73
     78.7470	 2872.00	 2780.57	-2064.59	 2068.90
     78.7730	 2892.00	 2780.55	-2044.57	 2069.06
     78.7990	 2806.00	 2780.53	-2130.55	 2069.23
     78.8250	 2866.00	 2780.51	-2070.53	 2069.40
     78.8510	 2904.00	 2780.50	-2032.52	 2069.57
     78.8770	 2887.00	 2780.37	-2049.39	 2069.61
     78.9030	 2866.00	 2780.19	-2070.21	 2069.61
     78.9290	 2815.00	 2780.02	-2121.04	 2069.61
     78.9550	 2867.00	 2779.85	-2068.87	 2069.61
     78.9810	 2839.00	 2779.68	-2096.70	 2069.61
     18.3375	        	        	        	        	       0	(  1  1  1)	  0  1
     18.3839	        	        	        	        	       0	(  1  1  1)	  0  2
     30.1645	        	        	        	        	       0	(  2  2  0)	  0  1
     30.2420	        	        	        	        	       0	(  2  2  0)	  0  2
     35.5305	        	        	        	        	       0	(  3  1  1)	  0  1
     35.6227	        	        	        	        	       0	(  3  1  1)	  0  2
     37.1669	        	        	        	        	       0	(  2  2  2)	  0  1
     37.2636	        	        	        	        	       0	(  2  2  2)	  0  2
     43.1830	        	        	        	        	       0	(  4  0  0)	  0  1
     43.2968	        	        	        	        	       0	(  4  0  0)	  0  2
     47.2819	        	        	        	        	       0	(  3  3  1)	  0  1
     47.4078	        	        	        	        	       0	(  3  3  1)	  0  2
     53.5758	        	        	        	        	       0	(  4  2  2)	  0  1
     53.7211	        	        	        	        	       0	(  4  2  2)	  0  2
     57.1134	        	        	        	        	       0	(  3  3  3)	  0  1
     57.1134	        	        	        	        	       0	(  5  1  1)	  0  1
     57.2700	        	        	        	        	       0	(  3  3  3)	  0  2
     57.2700	        	        	        	        	       0	(  5  1  1)	  0  2
     62.7197	        	        	        	        	       0	(  4  4  0)	  0  1
     62.8950	        	        	        	        	       0	(  4  4  0)	  0  2
     65.9481	        	        	        	        	       0	(  5  3  1)	  0  1
     66.1348	        	        	        	        	       0	(  5  3  1)	  0  2
     67.0058	        	        	        	        	       0	(  4  4  2)	  0  1
     67.1963	        	        	        	        	       0	(  4  4  2)	  0  2
     71.1598	        	        	        	        	       0	(  6  2  0)	  0  1
     71.3656	        	        	        	        	       0	(  6  2  0)	  0  2
     74.2078	        	        	        	        	       0	(  5  3  3)	  0  1
     74.4254	        	        	        	        	       0	(  5  3  3)	  0  2
     75.2132	        	        	        	        	       0	(  6  2  2)	  0  1
     75.4349	        	        	        	        	       0	(  6  2  2)	  0  2
