 AH10    CELL:    8.41755   8.41755   8.41755   90.0000   90.0000   90.0000   SPGR: F d -3 m               TEMP:      0.00
  2   2874     1.54056     1.54439    -0.20968     0.00000     0.00000    0
   94   22    0    0    0
 2Theta	Yobs	Ycal	Yobs-Ycal	Backg	Bragg	Posr	(hkl)	K
      5.1690	 5101.00	 5302.40	-1577.65	 4867.64	     18.0296	       0	(  1  1  1)	  0  1
      5.1950	 5130.00	 5277.66	-1523.91	 4842.88	     18.0753	       0	(  1  1  1)	  0  2
      5.2210	 5076.00	 5253.21	-1553.46	 4818.41	     29.7908	       0	(  2  2  0)	  0  1
      5.2470	 5107.00	 5229.05	-1498.30	 4794.23	     29.8671	       0	(  2  2  0)	  0  2
      5.2730	 5104.00	 5205.19	-1477.44	 4770.35	     35.1258	       0	(  3  1  1)	  0  1
      5.2990	 5082.00	 5181.60	-1475.85	 4746.75	     35.2165	       0	(  3  1  1)	  0  2
      5.3250	 5086.00	 5158.30	-1448.55	 4723.43	     36.7526	       0	(  2  2  2)	  0  1
      5.3510	 5042.00	 5135.28	-1469.53	 4700.39	     36.8478	       0	(  2  2  2)	  0  2
      5.3770	 4999.00	 5112.53	-1489.78	 4677.62	     36.8791	    -344	(  1  1  1)	  0  1
      5.4030	 5016.00	 5090.05	-1450.30	 4655.12	     36.9747	    -344	(  1  1  1)	  0  2
      5.4290	 4929.00	 5067.84	-1515.09	 4632.90	     42.7324	       0	(  4  0  0)	  0  1
      5.4550	 5026.00	 5045.90	-1396.15	 4610.93	     42.8444	       0	(  4  0  0)	  0  2
      5.4810	 4961.00	 5024.21	-1439.46	 4589.23	     42.8814	    -344	(  2  0  0)	  0  1
      5.5070	 4991.00	 5002.78	-1388.03	 4567.78	     42.9938	    -344	(  2  0  0)	  0  2
      5.5330	 5058.00	 4981.60	-1299.85	 4546.59	     46.8058	       0	(  3  3  1)	  0  1
      5.5590	 4994.00	 4960.68	-1342.93	 4525.64	     46.9297	       0	(  3  3  1)	  0  2
      5.5850	 4969.00	 4940.00	-1347.25	 4504.95	     53.0590	       0	(  4  2  2)	  0  1
      5.6110	 4815.00	 4919.57	-1480.82	 4484.50	     53.2018	       0	(  4  2  2)	  0  2
      5.6370	 4840.00	 4899.38	-1435.63	 4464.29	     56.5726	       0	(  3  3  3)	  0  1
      5.6630	 4818.00	 4879.43	-1437.68	 4444.32	     56.5726	       0	(  5  1  1)	  0  1
      5.6890	 4781.00	 4859.71	-1454.96	 4424.58	     56.7266	       0	(  3  3  3)	  0  2
      5.7150	 4794.00	 4840.23	-1422.48	 4405.08	     56.7266	       0	(  5  1  1)	  0  2
      5.7410	 4759.00	 4820.97	-1438.22	 4385.80	     62.1393	       0	(  4  4  0)	  0  1
      5.7670	 4820.00	 4801.94	-1358.19	 4366.75	     62.3117	       0	(  4  4  0)	  0  2
      5.7930	 4767.00	 4783.13	-1392.38	 4347.93	     62.3685	    -344	(  2  2  0)	  0  1
      5.8190	 4663.00	 4764.55	-1477.80	 4329.32	     62.5416	    -344	(  2  2  0)	  0  2
      5.8450	 4645.00	 4746.17	-1477.42	 4310.93	     65.3439	       0	(  5  3  1)	  0  1
      5.8710	 4754.00	 4728.02	-1350.27	 4292.76	     65.5273	       0	(  5  3  1)	  0  2
      5.8970	 4897.00	 4710.08	-1189.33	 4274.79	     66.3936	       0	(  4  4  2)	  0  1
      5.9230	 4765.00	 4692.34	-1303.59	 4257.04	     66.5807	       0	(  4  4  2)	  0  2
      5.9490	 4609.00	 4674.81	-1442.06	 4239.49	     70.5151	       0	(  6  2  0)	  0  1
      5.9750	 4642.00	 4657.49	-1391.74	 4222.14	     70.7173	       0	(  6  2  0)	  0  2
      6.0010	 4671.00	 4640.36	-1345.61	 4205.00	     73.5382	       0	(  5  3  3)	  0  1
      6.0270	 4677.00	 4623.43	-1322.68	 4188.05	     73.7520	       0	(  5  3  3)	  0  2
      6.0530	 4696.00	 4606.70	-1286.95	 4171.30	     74.5352	       0	(  6  2  2)	  0  1
      6.0790	 4632.00	 4590.16	-1334.41	 4154.74	     74.7529	       0	(  6  2  2)	  0  2
      6.1050	 4616.00	 4573.81	-1334.06	 4138.37	     74.8247	    -344	(  3  1  1)	  0  1
      6.1310	 4566.00	 4557.65	-1367.90	 4122.19	     75.0434	    -344	(  3  1  1)	  0  2
      6.1570	 4541.00	 4541.68	-1376.93	 4106.20	     78.4797	       0	(  4  4  4)	  0  1
      6.1830	 4542.00	 4525.89	-1360.14	 4090.39	     78.7134	       0	(  4  4  4)	  0  2
      6.2090	 4546.00	 4510.27	-1340.52	 4074.75	     78.7904	    -344	(  2  2  2)	  0  1
      6.2350	 4535.00	 4494.84	-1336.09	 4059.30	     79.0253	    -344	(  2  2  2)	  0  2
      6.2610	 4482.00	 4479.58	-1373.83	 4044.02	     81.4018	       0	(  7  1  1)	  0  1
      6.2870	 4456.00	 4464.49	-1384.74	 4028.91	     81.4018	       0	(  5  5  1)	  0  1
      6.3130	 4520.00	 4449.58	-1305.83	 4013.97	     81.6478	       0	(  7  1  1)	  0  2
      6.3390	 4529.00	 4434.83	-1282.08	 3999.21	     81.6478	       0	(  5  5  1)	  0  2
      6.3650	 4555.00	 4420.25	-1241.50	 3984.61	     86.2272	       0	(  6  4  2)	  0  1
      6.3910	 4579.00	 4405.83	-1203.08	 3970.17	     86.4950	       0	(  6  4  2)	  0  2
      6.4170	 4486.00	 4391.58	-1281.83	 3955.89	     89.1081	       0	(  5  5  3)	  0  1
      6.4430	 4441.00	 4377.48	-1312.73	 3941.78	     89.1081	       0	(  7  3  1)	  0  1
      6.4690	 4464.00	 4363.55	-1275.80	 3927.82	     89.3898	       0	(  5  5  3)	  0  2
      6.4950	 4503.00	 4349.76	-1223.01	 3914.02	     89.3898	       0	(  7  3  1)	  0  2
      6.5210	 4433.00	 4336.13	-1279.38	 3900.37	     93.9094	       0	(  8  0  0)	  0  1
      6.5470	 4322.00	 4322.65	-1376.90	 3886.87	     94.2159	       0	(  8  0  0)	  0  2
      6.5730	 4241.00	 4309.32	-1444.57	 3873.52	     94.3170	    -344	(  4  0  0)	  0  1
      6.5990	 4293.00	 4296.14	-1379.39	 3860.31	     94.6257	    -344	(  4  0  0)	  0  2
      6.6250	 4436.00	 4283.11	-1223.36	 3847.25	     96.8020	       0	(  7  3  3)	  0  1
      6.6510	 4439.00	 4270.21	-1207.46	 3834.34	     97.1245	       0	(  7  3  3)	  0  2
      6.6770	 4377.00	 4257.46	-1256.71	 3821.56	     97.7699	       0	(  6  4  4)	  0  1
      6.7030	 4313.00	 4244.84	-1308.09	 3808.93	     98.0978	       0	(  6  4  4)	  0  2
      6.7290	 4371.00	 4232.37	-1237.62	 3796.43	    101.6672	       0	(  6  6  0)	  0  1
      6.7550	 4362.00	 4220.02	-1234.27	 3784.07	    101.6672	       0	(  8  2  2)	  0  1
      6.7810	 4311.00	 4207.81	-1273.06	 3771.83	    102.0187	       0	(  6  6  0)	  0  2
      6.8070	 4202.00	 4195.74	-1369.99	 3759.74	    102.0187	       0	(  8  2  2)	  0  2
      6.8330	 4254.00	 4183.79	-1306.04	 3747.77	    104.6262	       0	(  5  5  5)	  0  1
      6.8590	 4261.00	 4171.97	-1287.22	 3735.93	    104.6262	       0	(  7  5  1)	  0  1
      6.8850	 4275.00	 4160.28	-1261.53	 3724.21	    104.9970	       0	(  5  5  5)	  0  2
      6.9110	 4198.00	 4148.71	-1326.96	 3712.62	    104.9970	       0	(  7  5  1)	  0  2
      6.9370	 4094.00	 4137.27	-1419.52	 3701.15	    105.6212	       0	(  6  6  2)	  0  1
      6.9630	 4026.00	 4125.94	-1476.19	 3689.81	    105.9987	       0	(  6  6  2)	  0  2
      6.9890	 4115.00	 4114.74	-1375.99	 3678.58	    106.1235	    -344	(  3  3  1)	  0  1
      7.0150	 4173.00	 4103.65	-1306.90	 3667.47	    106.5045	    -344	(  3  3  1)	  0  2
      7.0410	 4201.00	 4092.68	-1267.93	 3656.48	    109.6543	       0	(  8  4  0)	  0  1
      7.0670	 4112.00	 4081.82	-1346.07	 3645.60	    110.0609	       0	(  8  4  0)	  0  2
      7.0930	 4024.00	 4071.08	-1423.33	 3634.83	    110.1954	    -344	(  4  2  0)	  0  1
      7.1190	 4152.00	 4060.44	-1284.69	 3624.18	    110.6062	    -344	(  4  2  0)	  0  2
      7.1450	 4196.00	 4049.92	-1230.17	 3613.63	    112.7467	       0	(  7  5  3)	  0  1
      7.1710	 4148.00	 4039.50	-1267.75	 3603.19	    112.7467	       0	(  9  1  1)	  0  1
      7.1970	 4119.00	 4029.20	-1286.45	 3592.86	    113.1777	       0	(  7  5  3)	  0  2
      7.2230	 4095.00	 4018.99	-1300.24	 3582.64	    113.1777	       0	(  9  1  1)	  0  2
      7.2490	 4038.00	 4008.89	-1347.14	 3572.51	    113.7929	       0	(  8  4  2)	  0  1
      7.2750	 4036.00	 3998.90	-1339.15	 3562.49	    114.2327	       0	(  8  4  2)	  0  2
      7.3010	 4046.00	 3989.00	-1319.25	 3552.57	    118.0694	       0	(  6  6  4)	  0  1
      7.3270	 4046.00	 3979.20	-1309.45	 3542.75	    118.5476	       0	(  6  6  4)	  0  2
      7.3530	 4028.00	 3969.50	-1317.75	 3533.03	    121.3919	       0	(  9  3  1)	  0  1
      7.3790	 4048.00	 3959.90	-1288.15	 3523.41	    121.9034	       0	(  9  3  1)	  0  2
      7.4050	 3979.00	 3950.40	-1347.65	 3513.88	    127.2170	       0	(  8  4  4)	  0  1
      7.4310	 3972.00	 3940.98	-1345.23	 3504.44	    127.7964	       0	(  8  4  4)	  0  2
      7.4570	 3876.00	 3931.66	-1431.91	 3495.10	    127.9887	    -344	(  4  2  2)	  0  1
      7.4830	 3927.00	 3922.43	-1371.68	 3485.84	    128.5782	    -344	(  4  2  2)	  0  2
      7.5090	 3954.00	 3913.30	-1335.55	 3476.68	    130.9369	       0	(  7  5  5)	  0  1
      7.5350	 3918.00	 3904.25	-1362.50	 3467.61	    130.9369	       0	(  7  7  1)	  0  1
      7.5610	 3856.00	 3895.28	-1415.53	 3458.62	    130.9369	       0	(  9  3  3)	  0  1
      7.5870	 3952.00	 3886.41	-1310.66	 3449.72	    131.5676	       0	(  7  5  5)	  0  2
      7.6130	 3901.00	 3877.62	-1352.87	 3440.91	    131.5676	       0	(  7  7  1)	  0  2
      7.6390	 3898.00	 3868.91	-1347.16	 3432.18	    131.5676	       0	(  9  3  3)	  0  2
      7.6650	 4024.00	 3860.29	-1212.54	 3423.53	    137.6688	       0	(  8  6  2)	  0  1
      7.6910	 3978.00	 3851.74	-1249.99	 3414.96	    137.6689	       0	( 10  2  0)	  0  1
      7.7170	 3904.00	 3843.28	-1315.53	 3406.47	    138.4146	       0	(  8  6  2)	  0  2
      7.7430	 3947.00	 3834.90	-1264.15	 3398.07	    138.4146	       0	( 10  2  0)	  0  2
      7.7690	 3905.00	 3826.59	-1297.84	 3389.74	    142.1600	       0	(  7  7  3)	  0  1
      7.7950	 3823.00	 3818.37	-1371.62	 3381.49	    142.1600	       0	(  9  5  1)	  0  1
      7.8210	 3888.00	 3810.22	-1298.47	 3373.31	    143.0048	       0	(  7  7  3)	  0  2
      7.8470	 3788.00	 3802.14	-1390.39	 3365.21	    143.0048	       0	(  9  5  1)	  0  2
      7.8730	 3874.00	 3794.14	-1296.39	 3357.18	    143.7608	       0	(  6  6  6)	  0  1
      7.8990	 3837.00	 3786.21	-1325.46	 3349.23	    143.7608	       0	( 10  2  2)	  0  1
      7.9250	 3949.00	 3778.35	-1205.60	 3341.35	    144.6469	       0	(  6  6  6)	  0  2
      7.9510	 3735.00	 3770.57	-1411.82	 3333.54	    144.6469	       0	( 10  2  2)	  0  2
      7.9770	 3807.00	 3762.85	-1332.10	 3325.79	    144.9436	    -344	(  3  3  3)	  0  1
      8.0030	 3799.00	 3755.20	-1332.45	 3318.12	    144.9437	    -344	(  5  1  1)	  0  1
      8.0290	 3751.00	 3747.62	-1372.87	 3310.52	    145.8627	    -344	(  3  3  3)	  0  2
      8.0550	 3635.00	 3740.11	-1481.36	 3302.98	    145.8627	    -344	(  5  1  1)	  0  2
      8.0810	 3704.00	 3732.67	-1404.92	 3295.51	    157.6017	       0	(  9  5  3)	  0  1
      8.1070	 3683.00	 3725.29	-1418.54	 3288.10	    159.1040	       0	(  9  5  3)	  0  2
      8.1330	 3624.00	 3717.97	-1470.22	 3280.76	    160.2991	       0	(  8  6  4)	  0  1
      8.1590	 3658.00	 3710.72	-1428.97	 3273.48	    162.0334	       0	(  8  6  4)	  0  2
      8.1850	 3634.00	 3703.52	-1445.77	 3266.26
      8.2110	 3732.00	 3696.40	-1340.65	 3259.11
      8.2370	 3660.00	 3689.33	-1405.58	 3252.02
      8.2630	 3705.00	 3682.32	-1353.57	 3244.98
      8.2890	 3691.00	 3675.37	-1360.62	 3238.01
      8.3150	 3636.00	 3668.48	-1408.73	 3231.09
      8.3410	 3585.00	 3661.65	-1452.90	 3224.23
      8.3670	 3614.00	 3654.88	-1417.13	 3217.43
      8.3930	 3660.00	 3648.16	-1364.41	 3210.68
      8.4190	 3674.00	 3641.49	-1343.74	 3203.99
      8.4450	 3631.00	 3634.88	-1380.13	 3197.36
      8.4710	 3529.00	 3628.33	-1475.58	 3190.77
      8.4970	 3601.00	 3621.83	-1397.08	 3184.25
      8.5230	 3638.00	 3615.38	-1353.63	 3177.77
      8.5490	 3657.00	 3608.98	-1328.23	 3171.34
      8.5750	 3660.00	 3602.63	-1318.88	 3164.97
      8.6010	 3620.00	 3596.34	-1352.59	 3158.64
      8.6270	 3664.00	 3590.09	-1302.34	 3152.37
      8.6530	 3608.00	 3583.89	-1352.14	 3146.15
      8.6790	 3541.00	 3577.74	-1412.99	 3139.97
      8.7050	 3531.00	 3571.64	-1416.89	 3133.84
      8.7310	 3498.00	 3565.59	-1443.84	 3127.76
      8.7570	 3577.00	 3559.58	-1358.83	 3121.72
      8.7830	 3610.00	 3553.62	-1319.87	 3115.73
      8.8090	 3557.00	 3547.71	-1366.96	 3109.79
      8.8350	 3457.00	 3541.83	-1461.08	 3103.89
      8.8610	 3526.00	 3536.01	-1386.26	 3098.04
      8.8870	 3580.00	 3530.23	-1326.48	 3092.22
      8.9130	 3526.00	 3524.49	-1374.74	 3086.46
      8.9390	 3497.00	 3518.79	-1398.04	 3080.73
      8.9650	 3506.00	 3513.14	-1383.39	 3075.05
      8.9910	 3507.00	 3507.52	-1376.77	 3069.41
      9.0170	 3478.00	 3501.95	-1400.20	 3063.80
      9.0430	 3482.00	 3496.42	-1390.67	 3058.24
      9.0690	 3464.00	 3490.93	-1403.18	 3052.72
      9.0950	 3453.00	 3485.48	-1408.73	 3047.24
      9.1210	 3458.00	 3480.07	-1398.32	 3041.80
      9.1470	 3472.00	 3474.70	-1378.95	 3036.40
      9.1730	 3421.00	 3469.36	-1424.61	 3031.04
      9.1990	 3376.00	 3464.07	-1464.32	 3025.71
      9.2250	 3405.00	 3458.81	-1430.06	 3020.42
      9.2510	 3484.00	 3453.59	-1345.84	 3015.17
      9.2770	 3463.00	 3448.40	-1361.65	 3009.95
      9.3030	 3377.00	 3443.25	-1442.50	 3004.77
      9.3290	 3393.00	 3438.14	-1421.39	 2999.63
      9.3550	 3332.00	 3433.06	-1477.31	 2994.52
      9.3810	 3366.00	 3428.02	-1438.27	 2989.45
      9.4070	 3344.00	 3423.01	-1455.26	 2984.41
      9.4330	 3492.00	 3418.04	-1302.29	 2979.40
      9.4590	 3605.00	 3413.10	-1184.35	 2974.43
      9.4850	 3555.00	 3408.19	-1229.44	 2969.49
      9.5110	 3439.00	 3403.32	-1340.57	 2964.59
      9.5370	 3313.00	 3398.48	-1461.73	 2959.72
      9.5630	 3292.00	 3393.67	-1477.92	 2954.88
      9.5890	 3281.00	 3388.90	-1484.15	 2950.07
      9.6150	 3294.00	 3384.16	-1466.41	 2945.30
      9.6410	 3294.00	 3379.44	-1461.69	 2940.55
      9.6670	 3249.00	 3374.76	-1502.01	 2935.84
      9.6930	 3201.00	 3370.12	-1545.37	 2931.16
      9.7190	 3252.00	 3365.50	-1489.75	 2926.51
      9.7450	 3255.00	 3360.91	-1482.16	 2921.89
      9.7710	 3424.00	 3356.35	-1308.60	 2917.30
      9.7970	 3216.00	 3351.82	-1512.07	 2912.74
      9.8230	 3260.00	 3347.33	-1463.58	 2908.20
      9.8490	 3264.00	 3342.86	-1455.11	 2903.70
      9.8750	 3284.00	 3338.42	-1430.67	 2899.23
      9.9010	 3334.00	 3334.01	-1376.26	 2894.78
      9.9270	 3200.00	 3329.63	-1505.88	 2890.37
      9.9530	 3222.00	 3325.27	-1479.52	 2885.98
      9.9790	 3193.00	 3320.95	-1504.20	 2881.62
     10.0050	 3331.00	 3316.65	-1361.90	 2877.29
     10.0310	 3084.00	 3312.38	-1604.63	 2872.98
     10.0570	 3230.00	 3308.14	-1454.39	 2868.71
     10.0830	 3176.00	 3303.92	-1504.17	 2864.46
     10.1090	 3241.00	 3299.74	-1434.99	 2860.24
     10.1350	 3230.00	 3295.57	-1441.82	 2856.04
     10.1610	 3210.00	 3291.44	-1457.69	 2851.87
     10.1870	 3163.00	 3287.33	-1500.58	 2847.73
     10.2130	 3196.00	 3283.25	-1463.50	 2843.61
     10.2390	 3167.00	 3279.20	-1488.45	 2839.52
     10.2650	 3237.00	 3275.17	-1414.42	 2835.45
     10.2910	 3125.00	 3271.16	-1522.41	 2831.41
     10.3170	 3188.00	 3267.19	-1455.44	 2827.40
     10.3430	 3139.00	 3263.24	-1500.49	 2823.41
     10.3690	 3116.00	 3259.31	-1519.56	 2819.45
     10.3950	 3037.00	 3255.41	-1594.66	 2815.51
     10.4210	 3085.00	 3251.53	-1542.78	 2811.60
     10.4470	 3252.00	 3247.68	-1371.93	 2807.71
     10.4730	 3074.00	 3243.85	-1546.10	 2803.84
     10.4990	 3161.00	 3240.05	-1455.30	 2800.00
     10.5250	 3148.00	 3236.27	-1464.52	 2796.19
     10.5510	 3080.00	 3232.52	-1528.77	 2792.40
     10.5770	 3137.00	 3228.79	-1468.04	 2788.63
     10.6030	 3192.00	 3225.09	-1409.34	 2784.89
     10.6290	 3097.00	 3221.40	-1500.65	 2781.17
     10.6550	 3155.00	 3217.75	-1439.00	 2777.47
     10.6810	 3061.00	 3214.11	-1529.36	 2773.80
     10.7070	 3039.00	 3210.50	-1547.75	 2770.15
     10.7330	 3196.00	 3206.92	-1387.17	 2766.53
     10.7590	 3191.00	 3203.36	-1388.61	 2762.93
     10.7850	 3189.00	 3199.82	-1387.07	 2759.35
     10.8110	 3215.00	 3196.30	-1357.55	 2755.79
     10.8370	 3199.00	 3192.81	-1370.06	 2752.26
     10.8630	 3091.00	 3189.34	-1474.59	 2748.75
     10.8890	 3093.00	 3185.90	-1469.15	 2745.26
     10.9150	 3106.00	 3182.47	-1452.72	 2741.80
     10.9410	 3097.00	 3179.07	-1458.32	 2738.36
     10.9670	 3052.00	 3175.69	-1499.94	 2734.94
     10.9930	 3099.00	 3172.34	-1449.59	 2731.54
     11.0190	 3131.00	 3169.01	-1414.26	 2728.17
     11.0450	 3160.00	 3165.70	-1381.95	 2724.82
     11.0710	 3150.00	 3162.41	-1388.66	 2721.49
     11.0970	 3212.00	 3159.15	-1323.40	 2718.19
     11.1230	 3186.00	 3155.91	-1346.16	 2714.90
     11.1490	 3173.00	 3152.69	-1355.94	 2711.64
     11.1750	 3136.00	 3149.49	-1389.74	 2708.40
     11.2010	 3048.00	 3146.32	-1474.57	 2705.18
     11.2270	 3063.00	 3143.17	-1456.42	 2701.99
     11.2530	 3070.00	 3140.03	-1446.28	 2698.81
     11.2790	 3056.00	 3136.93	-1457.18	 2695.66
     11.3050	 3111.00	 3133.84	-1399.09	 2692.53
     11.3310	 3124.00	 3130.78	-1383.03	 2689.43
     11.3570	 3084.00	 3127.74	-1419.99	 2686.34
     11.3830	 3106.00	 3124.72	-1394.97	 2683.28
     11.4090	 3154.00	 3121.72	-1343.97	 2680.24
     11.4350	 3099.00	 3118.79	-1396.04	 2677.21
     11.4610	 3058.00	 3115.84	-1434.09	 2674.22
     11.4870	 3112.00	 3112.91	-1377.16	 2671.24
     11.5130	 3151.00	 3110.02	-1335.27	 2668.28
     11.5390	 3143.00	 3107.13	-1340.38	 2665.35
     11.5650	 3149.00	 3104.27	-1331.52	 2662.44
     11.5910	 3142.00	 3101.42	-1335.67	 2659.55
     11.6170	 3085.00	 3098.60	-1389.85	 2656.68
     11.6430	 3074.00	 3095.80	-1398.05	 2653.83
     11.6690	 3090.00	 3093.02	-1379.27	 2651.01
     11.6950	 3100.00	 3090.27	-1366.52	 2648.20
     11.7210	 3152.00	 3087.53	-1311.78	 2645.42
     11.7470	 3174.00	 3084.82	-1287.07	 2642.66
     11.7730	 3147.00	 3082.13	-1311.38	 2639.92
     11.7990	 3154.00	 3079.46	-1301.71	 2637.20
     11.8250	 3147.00	 3076.81	-1306.06	 2634.50
     11.8510	 3110.00	 3074.19	-1340.44	 2631.83
     11.8770	 3110.00	 3071.58	-1337.83	 2629.18
     11.9030	 3108.00	 3069.00	-1337.25	 2626.54
     11.9290	 3102.00	 3066.44	-1340.69	 2623.93
     11.9550	 3031.00	 3063.90	-1409.15	 2621.34
     11.9810	 3071.00	 3061.39	-1366.64	 2618.78
     12.0070	 3092.00	 3058.89	-1343.14	 2616.23
     12.0330	 3049.00	 3056.42	-1383.67	 2613.70
     12.0590	 3089.00	 3053.97	-1341.22	 2611.20
     12.0850	 3078.00	 3051.54	-1349.79	 2608.72
     12.1110	 3135.00	 3049.13	-1290.38	 2606.26
     12.1370	 3130.00	 3046.74	-1292.99	 2603.82
     12.1630	 3067.00	 3044.38	-1353.63	 2601.40
     12.1890	 3094.00	 3042.04	-1324.29	 2599.01
     12.2150	 3077.00	 3039.72	-1338.97	 2596.63
     12.2410	 3120.00	 3037.42	-1293.67	 2594.28
     12.2670	 3100.00	 3035.14	-1311.39	 2591.95
     12.2930	 3083.00	 3032.89	-1326.14	 2589.64
     12.3190	 3078.00	 3030.65	-1328.90	 2587.35
     12.3450	 3072.00	 3028.44	-1332.69	 2585.08
     12.3710	 3080.00	 3026.25	-1322.50	 2582.84
     12.3970	 3129.00	 3024.09	-1271.34	 2580.61
     12.4230	 3039.00	 3021.94	-1359.19	 2578.41
     12.4490	 3064.00	 3019.82	-1332.07	 2576.23
     12.4750	 3060.00	 3017.72	-1333.97	 2574.07
     12.5010	 3155.00	 3015.64	-1236.89	 2571.94
     12.5270	 2937.00	 3013.58	-1452.83	 2569.82
     12.5530	 3033.00	 3011.54	-1354.79	 2567.73
     12.5790	 3010.00	 3009.53	-1375.78	 2565.65
     12.6050	 3048.00	 3007.54	-1335.79	 2563.60
     12.6310	 3027.00	 3005.57	-1354.82	 2561.57
     12.6570	 3114.00	 3003.63	-1265.88	 2559.57
     12.6830	 2904.00	 3001.70	-1473.95	 2557.58
     12.7090	 3028.00	 2999.80	-1348.05	 2555.62
     12.7350	 3048.00	 2997.92	-1326.17	 2553.67
     12.7610	 3084.00	 2996.06	-1288.31	 2551.75
     12.7870	 2990.00	 2994.22	-1380.47	 2549.86
     12.8130	 3118.00	 2992.41	-1250.66	 2547.98
     12.8390	 2962.00	 2990.62	-1404.87	 2546.12
     12.8650	 3073.00	 2988.85	-1292.10	 2544.29
     12.8910	 3045.00	 2987.10	-1318.35	 2542.48
     12.9170	 3016.00	 2985.38	-1345.63	 2540.69
     12.9430	 3029.00	 2983.68	-1330.93	 2538.92
     12.9690	 3112.00	 2982.00	-1246.25	 2537.18
     12.9950	 3025.00	 2980.34	-1331.59	 2535.45
     13.0210	 3037.00	 2978.70	-1317.95	 2533.75
     13.0470	 3123.00	 2977.09	-1230.34	 2532.07
     13.0730	 3020.00	 2975.50	-1331.75	 2530.41
     13.0990	 2991.00	 2973.93	-1359.18	 2528.77
     13.1250	 3038.00	 2972.39	-1310.64	 2527.16
     13.1510	 3065.00	 2970.86	-1282.11	 2525.57
     13.1770	 3037.00	 2969.36	-1308.61	 2524.00
     13.2030	 3027.00	 2967.89	-1317.14	 2522.45
     13.2290	 3012.00	 2966.43	-1330.68	 2520.92
     13.2550	 2938.00	 2965.00	-1403.25	 2519.42
     13.2810	 3053.00	 2963.59	-1286.84	 2517.93
     13.3070	 3093.00	 2962.20	-1245.45	 2516.47
     13.3330	 3098.00	 2960.84	-1239.09	 2515.04
     13.3590	 3082.00	 2959.50	-1253.75	 2513.62
     13.3850	 3072.00	 2958.18	-1262.43	 2512.22
     13.4110	 2999.00	 2956.88	-1334.13	 2510.85
     13.4370	 3107.00	 2955.61	-1224.86	 2509.50
     13.4630	 3189.00	 2954.35	-1141.60	 2508.17
     13.4890	 3075.00	 2953.13	-1254.38	 2506.87
     13.5150	 3083.00	 2951.92	-1245.17	 2505.58
     13.5410	 3085.00	 2950.74	-1241.99	 2504.32
     13.5670	 3031.00	 2949.58	-1294.83	 2503.08
     13.5930	 3001.00	 2948.44	-1323.69	 2501.86
     13.6190	 3029.00	 2947.33	-1294.58	 2500.67
     13.6450	 3019.00	 2946.23	-1303.48	 2499.49
     13.6710	 3050.00	 2945.17	-1271.42	 2498.34
     13.6970	 2945.00	 2944.12	-1375.37	 2497.21
     13.7230	 2989.00	 2943.10	-1330.35	 2496.11
     13.7490	 3044.00	 2942.10	-1274.35	 2495.02
     13.7750	 3091.00	 2941.12	-1226.37	 2493.96
     13.8010	 3050.00	 2940.17	-1266.42	 2492.92
     13.8270	 2958.00	 2939.24	-1357.49	 2491.90
     13.8530	 2997.00	 2938.33	-1317.58	 2490.90
     13.8790	 3128.00	 2937.44	-1185.69	 2489.93
     13.9050	 3067.00	 2936.58	-1245.83	 2488.98
     13.9310	 2981.00	 2935.74	-1330.99	 2488.05
     13.9570	 3051.00	 2934.92	-1260.17	 2487.14
     13.9830	 3060.00	 2934.13	-1250.38	 2486.25
     14.0090	 3049.00	 2933.36	-1260.61	 2485.39
     14.0350	 3077.00	 2932.62	-1231.87	 2484.55
     14.0610	 3056.00	 2931.89	-1252.14	 2483.73
     14.0870	 2979.00	 2931.19	-1328.44	 2482.93
     14.1130	 2972.00	 2930.51	-1334.76	 2482.15
     14.1390	 3002.00	 2929.86	-1304.11	 2481.40
     14.1650	 3030.00	 2929.23	-1275.48	 2480.67
     14.1910	 3025.00	 2928.62	-1279.87	 2479.96
     14.2170	 2963.00	 2928.03	-1341.28	 2479.27
     14.2430	 2960.00	 2927.47	-1343.72	 2478.61
     14.2690	 2969.00	 2926.93	-1334.18	 2477.96
     14.2950	 2926.00	 2926.42	-1376.67	 2477.34
     14.3210	 2942.00	 2925.92	-1360.17	 2476.74
     14.3470	 2969.00	 2925.46	-1332.71	 2476.16
     14.3730	 2922.00	 2925.01	-1379.26	 2475.61
     14.3990	 2918.00	 2924.59	-1382.84	 2475.07
     14.4250	 2954.00	 2924.19	-1346.44	 2474.56
     14.4510	 2959.00	 2923.81	-1341.06	 2474.07
     14.4770	 2974.00	 2923.46	-1325.71	 2473.61
     14.5030	 3007.00	 2923.13	-1292.38	 2473.16
     14.5290	 2960.00	 2922.82	-1339.07	 2472.74
     14.5550	 3025.00	 2922.54	-1273.79	 2472.33
     14.5810	 3046.00	 2922.28	-1252.53	 2471.95
     14.6070	 2987.00	 2922.04	-1311.29	 2471.59
     14.6330	 2904.00	 2921.82	-1394.07	 2471.26
     14.6590	 2884.00	 2921.63	-1413.88	 2470.94
     14.6850	 2941.00	 2921.47	-1356.72	 2470.65
     14.7110	 2918.00	 2921.32	-1379.57	 2470.37
     14.7370	 2966.00	 2921.20	-1331.45	 2470.12
     14.7630	 2917.00	 2921.10	-1380.35	 2469.89
     14.7890	 2850.00	 2921.03	-1447.28	 2469.69
     14.8150	 2888.00	 2920.98	-1409.23	 2469.50
     14.8410	 2978.00	 2920.95	-1319.20	 2469.34
     14.8670	 2903.00	 2920.95	-1394.20	 2469.19
     14.8930	 2824.00	 2920.96	-1473.21	 2469.07
     14.9190	 2851.00	 2921.01	-1446.26	 2468.97
     14.9450	 2855.00	 2921.07	-1442.32	 2468.89
     14.9710	 2922.00	 2921.16	-1375.41	 2468.83
     14.9970	 2899.00	 2921.27	-1398.52	 2468.80
     15.0230	 2829.00	 2921.41	-1468.66	 2468.78
     15.0490	 2821.00	 2921.57	-1476.82	 2468.79
     15.0750	 2926.00	 2921.75	-1372.00	 2468.82
     15.1010	 2899.00	 2921.96	-1399.21	 2468.86
     15.1270	 2833.00	 2922.18	-1465.43	 2468.93
     15.1530	 2817.00	 2922.44	-1481.69	 2469.02
     15.1790	 2878.00	 2922.71	-1420.96	 2469.13
     15.2050	 2852.00	 2923.01	-1447.26	 2469.27
     15.2310	 2796.00	 2923.33	-1503.58	 2469.42
     15.2570	 2894.00	 2923.68	-1405.93	 2469.59
     15.2830	 2907.00	 2924.05	-1393.30	 2469.79
     15.3090	 2907.00	 2924.44	-1393.69	 2470.00
     15.3350	 2949.00	 2924.86	-1352.11	 2470.24
     15.3610	 2889.00	 2925.30	-1412.55	 2470.49
     15.3870	 2883.00	 2925.76	-1419.01	 2470.77
     15.4130	 2803.00	 2926.25	-1499.50	 2471.07
     15.4390	 2831.00	 2926.76	-1472.01	 2471.39
     15.4650	 2893.00	 2927.29	-1410.54	 2471.72
     15.4910	 2925.00	 2927.85	-1379.10	 2472.08
     15.5170	 2902.00	 2928.43	-1402.68	 2472.46
     15.5430	 2959.00	 2929.04	-1346.29	 2472.86
     15.5690	 2915.00	 2929.67	-1390.92	 2473.28
     15.5950	 2836.00	 2930.32	-1470.57	 2473.72
     15.6210	 2889.00	 2930.99	-1418.24	 2474.18
     15.6470	 2828.00	 2931.69	-1479.94	 2474.66
     15.6730	 2960.00	 2932.42	-1348.67	 2475.16
     15.6990	 2965.00	 2933.16	-1344.41	 2475.67
     15.7250	 2908.00	 2933.94	-1402.19	 2476.21
     15.7510	 2946.00	 2934.73	-1364.98	 2476.77
     15.7770	 2939.00	 2935.55	-1372.80	 2477.35
     15.8030	 2920.00	 2936.39	-1392.64	 2477.95
     15.8290	 2872.00	 2937.26	-1441.51	 2478.56
     15.8550	 2920.00	 2938.15	-1394.40	 2479.20
     15.8810	 3007.00	 2939.06	-1308.31	 2479.85
     15.9070	 2985.00	 2940.00	-1331.25	 2480.53
     15.9330	 2947.00	 2940.97	-1370.22	 2481.22
     15.9590	 2902.00	 2941.95	-1416.20	 2481.94
     15.9850	 2865.00	 2942.97	-1454.22	 2482.67
     16.0110	 2905.00	 2944.00	-1415.25	 2483.42
     16.0370	 2924.00	 2945.06	-1397.31	 2484.19
     16.0630	 2921.00	 2946.15	-1401.40	 2484.98
     16.0890	 2969.00	 2947.25	-1354.50	 2485.78
     16.1150	 2905.00	 2948.39	-1419.64	 2486.61
     16.1410	 2961.00	 2949.55	-1364.80	 2487.45
     16.1670	 2803.00	 2950.73	-1523.98	 2488.32
     16.1930	 2938.00	 2951.94	-1390.19	 2489.20
     16.2190	 2910.00	 2953.17	-1419.42	 2490.10
     16.2450	 2916.00	 2954.43	-1414.68	 2491.01
     16.2710	 2955.00	 2955.71	-1376.96	 2491.95
     16.2970	 2914.00	 2957.01	-1419.26	 2492.90
     16.3230	 2923.00	 2958.35	-1411.60	 2493.88
     16.3490	 2974.00	 2959.70	-1361.95	 2494.87
     16.3750	 2988.00	 2961.08	-1349.33	 2495.87
     16.4010	 2977.00	 2962.49	-1361.74	 2496.90
     16.4270	 3066.00	 2963.92	-1274.17	 2497.94
     16.4530	 3077.00	 2965.38	-1264.63	 2499.00
     16.4790	 2992.00	 2966.86	-1351.11	 2500.08
     16.5050	 3048.00	 2968.37	-1296.62	 2501.17
     16.5310	 2949.00	 2969.90	-1397.15	 2502.28
     16.5570	 2908.00	 2971.46	-1439.71	 2503.41
     16.5830	 2984.00	 2973.04	-1365.29	 2504.56
     16.6090	 3028.00	 2974.65	-1322.90	 2505.72
     16.6350	 3020.00	 2976.28	-1332.53	 2506.90
     16.6610	 2989.00	 2977.94	-1365.19	 2508.10
     16.6870	 2975.00	 2979.63	-1380.88	 2509.31
     16.7130	 2942.00	 2981.34	-1415.59	 2510.54
     16.7390	 2957.00	 2983.07	-1402.32	 2511.78
     16.7650	 3022.00	 2984.83	-1339.08	 2513.04
     16.7910	 3016.00	 2986.62	-1346.87	 2514.32
     16.8170	 3054.00	 2988.42	-1310.67	 2515.62
     16.8430	 3104.00	 2990.26	-1262.51	 2516.93
     16.8690	 3043.00	 2992.12	-1325.37	 2518.25
     16.8950	 3011.00	 2994.00	-1359.25	 2519.60
     16.9210	 3019.00	 2995.90	-1353.15	 2520.95
     16.9470	 3040.00	 2997.83	-1334.08	 2522.33
     16.9730	 3031.00	 2999.79	-1345.04	 2523.71
     16.9990	 2975.00	 3001.76	-1403.01	 2525.12
     17.0250	 2998.00	 3003.76	-1382.01	 2526.54
     17.0510	 3047.00	 3006.10	-1335.35	 2527.97
     17.0770	 3062.00	 3008.15	-1322.40	 2529.42
     17.1030	 3027.00	 3010.21	-1359.46	 2530.88
     17.1290	 3031.00	 3012.29	-1357.54	 2532.36
     17.1550	 3102.00	 3014.56	-1288.81	 2533.85
     17.1810	 3077.00	 3016.68	-1315.93	 2535.36
     17.2070	 3012.00	 3018.82	-1383.07	 2536.88
     17.2330	 2985.00	 3020.99	-1412.24	 2538.42
     17.2590	 3049.00	 3023.16	-1350.41	 2539.97
     17.2850	 3091.00	 3025.36	-1310.61	 2541.53
     17.3110	 3002.00	 3027.56	-1401.81	 2543.11
     17.3370	 3085.00	 3029.78	-1321.03	 2544.70
     17.3630	 3020.00	 3032.02	-1388.27	 2546.31
     17.3890	 3021.00	 3034.26	-1389.51	 2547.93
     17.4150	 3088.00	 3036.52	-1324.77	 2549.56
     17.4410	 3081.00	 3038.78	-1334.03	 2551.21
     17.4670	 3044.00	 3041.05	-1373.30	 2552.87
     17.4930	 3057.00	 3043.33	-1362.58	 2554.54
     17.5190	 3135.00	 3045.61	-1286.86	 2556.23
     17.5450	 3093.00	 3047.89	-1331.14	 2557.92
     17.5710	 3096.00	 3050.17	-1330.42	 2559.63
     17.5970	 3080.00	 3052.45	-1348.70	 2561.36
     17.6230	 3163.00	 3054.73	-1267.98	 2563.09
     17.6490	 3101.00	 3057.01	-1332.26	 2564.84
     17.6750	 3012.00	 3059.28	-1423.53	 2566.60
     17.7010	 3062.00	 3061.54	-1375.79	 2568.37
     17.7270	 3075.00	 3063.79	-1365.04	 2570.16
     17.7530	 3150.00	 3066.04	-1292.29	 2571.95
     17.7790	 3061.00	 3068.27	-1383.52	 2573.76
     17.8050	 3014.00	 3070.48	-1432.73	 2575.58
     17.8310	 3092.00	 3072.68	-1356.93	 2577.41
     17.8570	 3134.00	 3074.87	-1317.12	 2579.25
     17.8830	 3041.00	 3077.04	-1412.29	 2581.11
     17.9090	 3107.00	 3079.18	-1348.43	 2582.97
     17.9350	 3076.00	 3081.31	-1381.56	 2584.85
     17.9610	 3056.00	 3083.42	-1403.67	 2586.73
     17.9870	 3030.00	 3085.51	-1431.76	 2588.63
     18.0130	 3002.00	 3087.57	-1461.82	 2590.54
     18.0390	 3229.00	 3089.61	-1236.86	 2592.45
     18.0650	 3146.00	 3091.63	-1321.88	 2594.38
     18.0910	 3129.00	 3093.62	-1340.87	 2596.32
     18.1170	 3058.00	 3095.60	-1413.85	 2598.27
     18.1430	 3052.00	 3097.55	-1421.80	 2600.22
     18.1690	 3090.00	 3099.48	-1385.73	 2602.19
     18.1950	 3057.00	 3101.38	-1420.63	 2604.17
     18.2210	 3110.00	 3103.27	-1369.52	 2606.15
     18.2470	 3151.00	 3105.14	-1330.39	 2608.15
     18.2730	 3093.00	 3106.98	-1390.23	 2610.15
     18.2990	 3046.00	 3108.81	-1439.06	 2612.16
     18.3250	 3015.00	 3110.62	-1471.87	 2614.18
     18.3510	 3017.00	 3112.42	-1471.67	 2616.22
     18.3770	 3050.00	 3114.20	-1440.45	 2618.25
     18.4030	 3040.00	 3115.97	-1452.22	 2620.30
     18.4290	 3067.00	 3117.73	-1426.98	 2622.36
     18.4550	 3152.00	 3119.47	-1343.72	 2624.42
     18.4810	 3161.00	 3121.21	-1336.46	 2626.49
     18.5070	 3056.00	 3122.94	-1443.19	 2628.57
     18.5330	 3100.00	 3124.66	-1400.91	 2630.66
     18.5590	 3027.00	 3126.37	-1475.62	 2632.75
     18.5850	 3098.00	 3128.09	-1406.34	 2634.86
     18.6110	 3091.00	 3129.80	-1415.05	 2636.97
     18.6370	 3115.00	 3131.51	-1392.76	 2639.08
     18.6630	 3149.00	 3133.22	-1360.47	 2641.21
     18.6890	 3138.00	 3134.93	-1373.18	 2643.34
     18.7150	 3087.00	 3136.65	-1425.90	 2645.48
     18.7410	 3062.00	 3138.37	-1452.62	 2647.62
     18.7670	 3124.00	 3140.09	-1392.34	 2649.77
     18.7930	 3075.00	 3141.82	-1443.07	 2651.93
     18.8190	 3100.00	 3143.56	-1419.81	 2654.09
     18.8450	 3137.00	 3145.30	-1384.55	 2656.26
     18.8710	 3125.00	 3147.05	-1398.30	 2658.43
     18.8970	 3114.00	 3148.82	-1411.07	 2660.61
     18.9230	 3087.00	 3150.59	-1439.84	 2662.80
     18.9490	 3168.00	 3152.37	-1360.62	 2664.99
     18.9750	 3118.00	 3154.16	-1412.41	 2667.18
     19.0010	 3130.00	 3155.96	-1402.21	 2669.38
     19.0270	 3137.00	 3157.77	-1397.02	 2671.59
     19.0530	 3078.00	 3159.60	-1457.85	 2673.80
     19.0790	 3016.00	 3161.43	-1521.68	 2676.02
     19.1050	 2995.00	 3163.28	-1544.53	 2678.24
     19.1310	 3054.00	 3165.14	-1487.39	 2680.46
     19.1570	 3053.00	 3167.01	-1490.26	 2682.69
     19.1830	 3127.00	 3168.90	-1418.15	 2684.92
     19.2090	 3157.00	 3170.80	-1390.05	 2687.16
     19.2350	 3106.00	 3172.71	-1442.96	 2689.40
     19.2610	 3082.00	 3174.63	-1468.88	 2691.64
     19.2870	 3090.00	 3176.57	-1462.82	 2693.89
     19.3130	 3094.00	 3178.51	-1460.76	 2696.14
     19.3390	 3123.00	 3180.47	-1433.72	 2698.39
     19.3650	 3148.00	 3182.45	-1410.70	 2700.65
     19.3910	 3127.00	 3184.43	-1433.68	 2702.91
     19.4170	 3136.00	 3186.43	-1426.68	 2705.17
     19.4430	 3098.00	 3188.43	-1466.68	 2707.44
     19.4690	 3039.00	 3190.45	-1527.70	 2709.71
     19.4950	 3034.00	 3192.48	-1534.73	 2711.98
     19.5210	 3018.00	 3194.53	-1552.78	 2714.25
     19.5470	 3085.00	 3196.58	-1487.83	 2716.52
     19.5730	 3159.00	 3198.64	-1415.89	 2718.80
     19.5990	 3152.00	 3200.71	-1424.96	 2721.08
     19.6250	 3139.00	 3202.80	-1440.05	 2723.35
     19.6510	 3157.00	 3204.89	-1424.14	 2725.63
     19.6770	 3182.00	 3206.99	-1401.24	 2727.92
     19.7030	 3112.00	 3209.10	-1473.35	 2730.20
     19.7290	 3104.00	 3211.22	-1483.47	 2732.48
     19.7550	 3120.00	 3213.35	-1469.60	 2734.77
     19.7810	 3178.00	 3215.49	-1413.74	 2737.05
     19.8070	 3150.00	 3217.64	-1443.89	 2739.34
     19.8330	 3093.00	 3219.79	-1503.04	 2741.62
     19.8590	 3136.00	 3221.95	-1462.20	 2743.91
     19.8850	 3210.00	 3224.12	-1390.37	 2746.20
     19.9110	 3208.00	 3226.30	-1394.55	 2748.48
     19.9370	 3167.00	 3228.48	-1437.73	 2750.77
     19.9630	 3223.00	 3230.67	-1383.92	 2753.06
     19.9890	 3215.00	 3232.86	-1394.11	 2755.34
     20.0150	 3202.00	 3235.07	-1409.32	 2757.62
     20.0410	 3178.00	 3237.27	-1435.52	 2759.91
     20.0670	 3160.00	 3239.49	-1455.74	 2762.19
     20.0930	 3224.00	 3241.70	-1393.95	 2764.47
     20.1190	 3267.00	 3243.93	-1353.18	 2766.75
     20.1450	 3238.00	 3246.15	-1384.40	 2769.03
     20.1710	 3192.00	 3248.38	-1432.63	 2771.31
     20.1970	 3211.00	 3250.62	-1415.87	 2773.59
     20.2230	 3212.00	 3252.86	-1417.11	 2775.86
     20.2490	 3153.00	 3255.10	-1478.35	 2778.13
     20.2750	 3133.00	 3257.35	-1500.60	 2780.40
     20.3010	 3140.00	 3259.59	-1495.84	 2782.67
     20.3270	 3157.00	 3261.85	-1481.10	 2784.93
     20.3530	 3209.00	 3264.10	-1431.35	 2787.20
     20.3790	 3199.00	 3266.36	-1443.61	 2789.46
     20.4050	 3320.00	 3268.62	-1324.87	 2791.71
     20.4310	 3252.00	 3270.88	-1395.13	 2793.97
     20.4570	 3290.00	 3273.14	-1359.39	 2796.22
     20.4830	 3356.00	 3275.40	-1295.65	 2798.47
     20.5090	 3144.00	 3277.67	-1509.92	 2800.71
     20.5350	 3292.00	 3279.93	-1364.18	 2802.95
     20.5610	 3185.00	 3282.20	-1473.45	 2805.19
     20.5870	 3238.00	 3284.47	-1422.72	 2807.42
     20.6130	 3281.00	 3286.74	-1381.99	 2809.65
     20.6390	 3371.00	 3289.00	-1294.25	 2811.88
     20.6650	 3316.00	 3291.27	-1351.52	 2814.10
     20.6910	 3164.00	 3293.54	-1505.79	 2816.32
     20.7170	 3333.00	 3295.81	-1339.06	 2818.53
     20.7430	 3367.00	 3298.07	-1307.32	 2820.74
     20.7690	 3300.00	 3300.34	-1376.59	 2822.94
     20.7950	 3242.00	 3302.60	-1436.85	 2825.14
     20.8210	 3256.00	 3304.86	-1425.11	 2827.33
     20.8470	 3231.00	 3307.13	-1452.38	 2829.52
     20.8730	 3257.00	 3309.39	-1428.64	 2831.70
     20.8990	 3321.00	 3311.64	-1366.89	 2833.88
     20.9250	 3208.00	 3313.90	-1482.15	 2836.05
     20.9510	 3373.00	 3316.15	-1319.40	 2838.21
     20.9770	 3213.00	 3318.40	-1481.65	 2840.37
     21.0030	 3259.00	 3320.65	-1437.90	 2842.52
     21.0290	 3276.00	 3322.90	-1423.15	 2844.67
     21.0550	 3159.00	 3325.14	-1542.39	 2846.81
     21.0810	 3268.00	 3327.38	-1435.63	 2848.95
     21.1070	 3326.00	 3329.62	-1379.87	 2851.08
     21.1330	 3313.00	 3331.85	-1395.10	 2853.20
     21.1590	 3310.00	 3334.08	-1400.33	 2855.31
     21.1850	 3189.00	 3336.31	-1523.56	 2857.42
     21.2110	 3348.00	 3338.53	-1366.78	 2859.52
     21.2370	 3277.00	 3340.75	-1440.00	 2861.61
     21.2630	 3305.00	 3342.96	-1414.21	 2863.70
     21.2890	 3363.00	 3345.17	-1358.42	 2865.78
     21.3150	 3375.00	 3347.37	-1348.62	 2867.85
     21.3410	 3380.00	 3349.57	-1345.82	 2869.91
     21.3670	 3311.00	 3351.77	-1417.02	 2871.96
     21.3930	 3291.00	 3353.96	-1439.21	 2874.01
     21.4190	 3299.00	 3356.14	-1433.39	 2876.05
     21.4450	 3310.00	 3358.32	-1424.57	 2878.08
     21.4710	 3276.00	 3360.50	-1460.75	 2880.10
     21.4970	 3360.00	 3362.67	-1378.92	 2882.12
     21.5230	 3322.00	 3364.83	-1419.08	 2884.12
     21.5490	 3403.00	 3366.99	-1340.24	 2886.12
     21.5750	 3404.00	 3369.14	-1341.39	 2888.11
     21.6010	 3379.00	 3371.28	-1368.53	 2890.08
     21.6270	 3384.00	 3373.42	-1365.67	 2892.05
     21.6530	 3388.00	 3375.55	-1363.80	 2894.01
     21.6790	 3346.00	 3377.68	-1407.93	 2895.96
     21.7050	 3388.00	 3379.80	-1368.05	 2897.91
     21.7310	 3370.00	 3381.91	-1388.16	 2899.84
     21.7570	 3374.00	 3384.02	-1386.27	 2901.76
     21.7830	 3354.00	 3386.12	-1408.37	 2903.67
     21.8090	 3324.00	 3388.21	-1440.46	 2905.57
     21.8350	 3356.00	 3390.29	-1410.54	 2907.47
     21.8610	 3402.00	 3392.37	-1366.62	 2909.35
     21.8870	 3389.00	 3394.44	-1381.69	 2911.22
     21.9130	 3373.00	 3396.50	-1399.75	 2913.08
     21.9390	 3425.00	 3398.55	-1349.80	 2914.93
     21.9650	 3436.00	 3400.60	-1340.85	 2916.77
     21.9910	 3393.00	 3402.64	-1385.89	 2918.60
     22.0170	 3413.00	 3404.67	-1367.92	 2920.42
     22.0430	 3483.00	 3406.69	-1299.94	 2922.22
     22.0690	 3505.00	 3408.70	-1279.95	 2924.02
     22.0950	 3432.00	 3410.71	-1354.96	 2925.80
     22.1210	 3394.00	 3412.71	-1394.96	 2927.58
     22.1470	 3439.00	 3414.70	-1351.95	 2929.34
     22.1730	 3414.00	 3416.67	-1378.92	 2931.09
     22.1990	 3414.00	 3418.65	-1380.90	 2932.83
     22.2250	 3434.00	 3420.61	-1362.86	 2934.55
     22.2510	 3400.00	 3422.56	-1398.81	 2936.27
     22.2770	 3448.00	 3424.50	-1352.75	 2937.97
     22.3030	 3425.00	 3426.44	-1377.69	 2939.66
     22.3290	 3367.00	 3428.36	-1437.61	 2941.34
     22.3550	 3405.00	 3430.28	-1401.53	 2943.01
     22.3810	 3461.00	 3432.18	-1347.43	 2944.66
     22.4070	 3487.00	 3434.08	-1323.33	 2946.30
     22.4330	 3463.00	 3435.97	-1349.22	 2947.93
     22.4590	 3451.00	 3437.85	-1363.10	 2949.55
     22.4850	 3406.00	 3439.71	-1409.96	 2951.15
     22.5110	 3543.00	 3441.57	-1274.82	 2952.74
     22.5370	 3467.00	 3443.42	-1352.67	 2954.32
     22.5630	 3502.00	 3445.25	-1319.50	 2955.88
     22.5890	 3539.00	 3447.08	-1284.33	 2957.43
     22.6150	 3466.00	 3448.90	-1359.15	 2958.97
     22.6410	 3324.00	 3450.71	-1502.96	 2960.49
     22.6670	 3427.00	 3452.50	-1401.75	 2962.00
     22.6930	 3510.00	 3454.29	-1320.54	 2963.50
     22.7190	 3556.00	 3456.06	-1276.31	 2964.98
     22.7450	 3486.00	 3457.83	-1348.08	 2966.45
     22.7710	 3460.00	 3459.58	-1375.83	 2967.91
     22.7970	 3548.00	 3461.33	-1289.58	 2969.35
     22.8230	 3457.00	 3463.06	-1382.31	 2970.77
     22.8490	 3556.00	 3464.78	-1285.03	 2972.19
     22.8750	 3532.00	 3466.49	-1310.74	 2973.59
     22.9010	 3521.00	 3468.19	-1323.44	 2974.97
     22.9270	 3527.00	 3469.88	-1319.13	 2976.34
     22.9530	 3516.00	 3471.56	-1331.81	 2977.69
     22.9790	 3468.00	 3473.22	-1381.47	 2979.03
     23.0050	 3508.00	 3474.88	-1343.13	 2980.36
     23.0310	 3540.00	 3476.52	-1312.77	 2981.67
     23.0570	 3465.00	 3478.15	-1389.40	 2982.97
     23.0830	 3424.00	 3479.77	-1432.02	 2984.25
     23.1090	 3569.00	 3481.38	-1288.63	 2985.51
     23.1350	 3550.00	 3482.98	-1309.23	 2986.76
     23.1610	 3564.00	 3484.57	-1296.82	 2988.00
     23.1870	 3545.00	 3486.14	-1317.39	 2989.22
     23.2130	 3610.00	 3487.71	-1253.96	 2990.43
     23.2390	 3605.00	 3489.26	-1260.51	 2991.61
     23.2650	 3534.00	 3490.80	-1333.05	 2992.79
     23.2910	 3510.00	 3492.33	-1358.58	 2993.95
     23.3170	 3570.00	 3493.84	-1300.09	 2995.09
     23.3430	 3567.00	 3495.35	-1304.60	 2996.22
     23.3690	 3534.00	 3496.84	-1339.09	 2997.33
     23.3950	 3525.00	 3498.32	-1349.57	 2998.42
     23.4210	 3588.00	 3499.79	-1288.04	 2999.50
     23.4470	 3551.00	 3501.25	-1326.50	 3000.56
     23.4730	 3583.00	 3502.69	-1295.94	 3001.61
     23.4990	 3668.00	 3504.12	-1212.37	 3002.64
     23.5250	 3602.00	 3505.54	-1279.79	 3003.65
     23.5510	 3589.00	 3506.95	-1294.20	 3004.65
     23.5770	 3558.00	 3508.35	-1326.60	 3005.63
     23.6030	 3495.00	 3509.74	-1390.99	 3006.60
     23.6290	 3653.00	 3511.11	-1234.36	 3007.55
     23.6550	 3521.00	 3512.47	-1367.72	 3008.48
     23.6810	 3456.00	 3513.82	-1434.07	 3009.39
     23.7070	 3536.00	 3515.15	-1355.40	 3010.29
     23.7330	 3661.00	 3516.48	-1231.73	 3011.17
     23.7590	 3672.00	 3517.79	-1222.04	 3012.04
     23.7850	 3601.00	 3519.09	-1294.34	 3012.88
     23.8110	 3665.00	 3520.38	-1231.63	 3013.71
     23.8370	 3626.00	 3521.66	-1271.91	 3014.53
     23.8630	 3584.00	 3522.92	-1315.17	 3015.32
     23.8890	 3627.00	 3524.17	-1273.42	 3016.10
     23.9150	 3564.00	 3525.41	-1337.66	 3016.86
     23.9410	 3622.00	 3526.64	-1280.89	 3017.61
     23.9670	 3677.00	 3527.85	-1227.10	 3018.33
     23.9930	 3642.00	 3529.06	-1263.31	 3019.04
     24.0190	 3631.00	 3530.25	-1275.50	 3019.74
     24.0450	 3681.00	 3531.43	-1226.68	 3020.41
     24.0710	 3606.00	 3532.59	-1302.84	 3021.07
     24.0970	 3637.00	 3533.75	-1273.00	 3021.71
     24.1230	 3647.00	 3534.89	-1264.14	 3022.33
     24.1490	 3664.00	 3536.02	-1248.27	 3022.93
     24.1750	 3633.00	 3537.14	-1280.39	 3023.52
     24.2010	 3700.00	 3538.25	-1214.50	 3024.09
     24.2270	 3658.00	 3539.35	-1257.60	 3024.64
     24.2530	 3582.00	 3540.43	-1334.68	 3025.17
     24.2790	 3637.00	 3541.50	-1280.75	 3025.68
     24.3050	 3604.00	 3542.56	-1314.81	 3026.18
     24.3310	 3627.00	 3543.61	-1292.86	 3026.66
     24.3570	 3610.00	 3544.65	-1310.90	 3027.12
     24.3830	 3547.00	 3545.68	-1374.93	 3027.56
     24.4090	 3591.00	 3546.69	-1331.94	 3027.98
     24.4350	 3597.00	 3547.69	-1326.94	 3028.39
     24.4610	 3620.00	 3548.68	-1304.93	 3028.78
     24.4870	 3619.00	 3549.66	-1306.91	 3029.14
     24.5130	 3605.00	 3550.63	-1321.88	 3029.49
     24.5390	 3647.00	 3551.59	-1280.84	 3029.83
     24.5650	 3656.00	 3552.54	-1272.79	 3030.14
     24.5910	 3667.00	 3553.47	-1262.72	 3030.44
     24.6170	 3614.00	 3554.40	-1316.65	 3030.71
     24.6430	 3581.00	 3555.31	-1350.56	 3030.97
     24.6690	 3615.00	 3556.22	-1317.47	 3031.21
     24.6950	 3598.00	 3557.11	-1335.36	 3031.43
     24.7210	 3564.00	 3557.99	-1370.24	 3031.63
     24.7470	 3589.00	 3558.86	-1346.11	 3031.82
     24.7730	 3586.00	 3559.72	-1349.97	 3031.98
     24.7990	 3580.00	 3560.57	-1356.82	 3032.13
     24.8250	 3632.00	 3561.42	-1305.67	 3032.25
     24.8510	 3589.00	 3562.25	-1349.50	 3032.36
     24.8770	 3617.00	 3563.07	-1322.32	 3032.45
     24.9030	 3659.00	 3563.88	-1281.13	 3032.52
     24.9290	 3613.00	 3564.68	-1327.93	 3032.57
     24.9550	 3626.00	 3565.47	-1315.72	 3032.61
     24.9810	 3644.00	 3566.25	-1298.50	 3032.62
     25.0070	 3603.00	 3567.03	-1340.28	 3032.62
     25.0330	 3580.00	 3567.79	-1364.04	 3032.59
     25.0590	 3625.00	 3568.55	-1319.80	 3032.55
     25.0850	 3695.00	 3569.29	-1250.54	 3032.49
     25.1110	 3716.00	 3570.03	-1230.28	 3032.41
     25.1370	 3708.00	 3570.76	-1239.01	 3032.31
     25.1630	 3696.00	 3571.48	-1251.73	 3032.19
     25.1890	 3713.00	 3572.19	-1235.44	 3032.05
     25.2150	 3734.00	 3572.90	-1215.15	 3031.90
     25.2410	 3614.00	 3573.59	-1335.84	 3031.72
     25.2670	 3614.00	 3574.28	-1336.53	 3031.52
     25.2930	 3686.00	 3574.96	-1265.21	 3031.31
     25.3190	 3698.00	 3575.64	-1253.89	 3031.08
     25.3450	 3685.00	 3576.31	-1267.56	 3030.83
     25.3710	 3626.00	 3576.97	-1327.22	 3030.55
     25.3970	 3713.00	 3577.62	-1240.87	 3030.26
     25.4230	 3612.00	 3578.27	-1342.52	 3029.95
     25.4490	 3635.00	 3578.91	-1320.16	 3029.62
     25.4750	 3642.00	 3579.55	-1313.80	 3029.28
     25.5010	 3619.00	 3580.18	-1337.43	 3028.91
     25.5270	 3604.00	 3580.80	-1353.05	 3028.52
     25.5530	 3638.00	 3581.42	-1319.67	 3028.12
     25.5790	 3559.00	 3582.04	-1399.29	 3027.69
     25.6050	 3653.00	 3582.65	-1305.90	 3027.25
     25.6310	 3638.00	 3583.25	-1321.50	 3026.78
     25.6570	 3619.00	 3583.85	-1341.10	 3026.30
     25.6830	 3597.00	 3584.45	-1363.70	 3025.80
     25.7090	 3549.00	 3585.05	-1412.30	 3025.28
     25.7350	 3596.00	 3585.64	-1365.89	 3024.74
     25.7610	 3697.00	 3586.23	-1265.48	 3024.18
     25.7870	 3736.00	 3586.81	-1227.06	 3023.60
     25.8130	 3574.00	 3587.40	-1389.65	 3023.00
     25.8390	 3543.00	 3587.98	-1421.23	 3022.39
     25.8650	 3666.00	 3588.56	-1298.81	 3021.75
     25.8910	 3652.00	 3589.14	-1313.39	 3021.09
     25.9170	 3527.00	 3589.72	-1438.97	 3020.42
     25.9430	 3583.00	 3590.30	-1383.55	 3019.73
     25.9690	 3614.00	 3590.88	-1353.13	 3019.01
     25.9950	 3572.00	 3591.45	-1395.70	 3018.28
     26.0210	 3629.00	 3592.03	-1339.28	 3017.53
     26.0470	 3525.00	 3592.62	-1443.87	 3016.76
     26.0730	 3675.00	 3593.20	-1294.45	 3015.97
     26.0990	 3587.00	 3593.78	-1383.03	 3015.16
     26.1250	 3574.00	 3594.37	-1396.62	 3014.34
     26.1510	 3673.00	 3594.96	-1298.21	 3013.49
     26.1770	 3585.00	 3595.56	-1386.81	 3012.62
     26.2030	 3588.00	 3596.16	-1384.41	 3011.74
     26.2290	 3621.00	 3596.76	-1352.01	 3010.84
     26.2550	 3578.00	 3597.37	-1395.62	 3009.91
     26.2810	 3664.00	 3597.98	-1310.23	 3008.97
     26.3070	 3657.00	 3598.61	-1317.86	 3008.01
     26.3330	 3774.00	 3599.23	-1201.48	 3007.03
     26.3590	 3600.00	 3599.87	-1376.12	 3006.04
     26.3850	 3507.00	 3600.51	-1469.76	 3005.02
     26.4110	 3589.00	 3601.16	-1388.41	 3003.98
     26.4370	 3611.00	 3601.83	-1367.08	 3002.93
     26.4630	 3546.00	 3602.50	-1432.75	 3001.85
     26.4890	 3595.00	 3603.18	-1384.43	 3000.76
     26.5150	 3627.00	 3603.87	-1353.12	 2999.65
     26.5410	 3718.00	 3604.58	-1262.83	 2998.52
     26.5670	 3624.00	 3605.30	-1357.55	 2997.37
     26.5930	 3629.00	 3606.03	-1353.28	 2996.21
     26.6190	 3783.00	 3606.78	-1200.03	 2995.02
     26.6450	 3679.00	 3607.54	-1304.79	 2993.82
     26.6710	 3655.00	 3608.32	-1329.57	 2992.59
     26.6970	 3655.00	 3609.11	-1330.36	 2991.35
     26.7230	 3660.00	 3609.92	-1326.17	 2990.09
     26.7490	 3637.00	 3610.75	-1350.00	 2988.81
     26.7750	 3636.00	 3611.60	-1351.85	 2987.52
     26.8010	 3554.00	 3612.47	-1434.72	 2986.20
     26.8270	 3592.00	 3613.36	-1397.61	 2984.87
     26.8530	 3582.00	 3614.28	-1408.53	 2983.52
     26.8790	 3607.00	 3615.22	-1384.47	 2982.15
     26.9050	 3630.00	 3616.18	-1362.43	 2980.76
     26.9310	 3618.00	 3617.17	-1375.42	 2979.35
     26.9570	 3623.00	 3618.18	-1371.43	 2977.93
     26.9830	 3593.00	 3619.22	-1402.47	 2976.48
     27.0090	 3569.00	 3620.29	-1427.54	 2975.02
     27.0350	 3593.00	 3621.39	-1404.64	 2973.54
     27.0610	 3604.00	 3622.52	-1394.77	 2972.05
     27.0870	 3622.00	 3623.69	-1377.94	 2970.53
     27.1130	 3590.00	 3624.89	-1411.14	 2969.00
     27.1390	 3580.00	 3626.12	-1422.37	 2967.45
     27.1650	 3658.00	 3627.39	-1345.64	 2965.88
     27.1910	 3636.00	 3628.70	-1368.95	 2964.29
     27.2170	 3636.00	 3630.04	-1370.29	 2962.69
     27.2430	 3681.00	 3631.43	-1326.68	 2961.06
     27.2690	 3653.00	 3632.86	-1356.11	 2959.42
     27.2950	 3643.00	 3634.33	-1367.58	 2957.77
     27.3210	 3640.00	 3635.85	-1372.10	 2956.09
     27.3470	 3624.00	 3637.42	-1389.67	 2954.40
     27.3730	 3654.00	 3639.03	-1361.28	 2952.69
     27.3990	 3684.00	 3640.69	-1332.94	 2950.96
     27.4250	 3703.00	 3642.41	-1315.66	 2949.22
     27.4510	 3716.00	 3644.18	-1304.43	 2947.45
     27.4770	 3665.00	 3646.01	-1357.26	 2945.68
     27.5030	 3658.00	 3647.89	-1366.14	 2943.88
     27.5290	 3681.00	 3649.84	-1345.09	 2942.06
     27.5550	 3672.00	 3651.84	-1356.09	 2940.23
     27.5810	 3578.00	 3653.91	-1452.16	 2938.39
     27.6070	 3492.00	 3656.04	-1540.29	 2936.52
     27.6330	 3595.00	 3658.24	-1439.49	 2934.64
     27.6590	 3683.00	 3660.51	-1353.76	 2932.74
     27.6850	 3794.00	 3662.85	-1245.10	 2930.83
     27.7110	 3775.00	 3665.27	-1266.52	 2928.89
     27.7370	 3678.00	 3667.76	-1366.01	 2926.94
     27.7630	 3650.00	 3670.33	-1396.58	 2924.98
     27.7890	 3737.00	 3672.99	-1312.24	 2923.00
     27.8150	 3714.00	 3675.72	-1337.97	 2921.00
     27.8410	 3664.00	 3678.54	-1390.79	 2918.98
     27.8670	 3649.00	 3681.45	-1408.70	 2916.95
     27.8930	 3725.00	 3684.45	-1335.70	 2914.91
     27.9190	 3772.00	 3687.54	-1291.79	 2912.84
     27.9450	 3756.00	 3690.73	-1310.98	 2910.76
     27.9710	 3797.00	 3694.01	-1273.26	 2908.67
     27.9970	 3753.00	 3697.40	-1320.65	 2906.55
     28.0230	 3749.00	 3700.88	-1328.13	 2904.42
     28.0490	 3714.00	 3704.48	-1366.73	 2902.28
     28.0750	 3747.00	 3708.18	-1337.43	 2900.12
     28.1010	 3717.00	 3711.99	-1371.24	 2897.94
     28.1270	 3668.00	 3715.91	-1424.16	 2895.75
     28.1530	 3721.00	 3719.95	-1375.20	 2893.55
     28.1790	 3862.00	 3724.11	-1238.36	 2891.32
     28.2050	 3792.00	 3728.39	-1312.64	 2889.08
     28.2310	 3670.00	 3732.79	-1439.04	 2886.83
     28.2570	 3803.00	 3737.31	-1310.56	 2884.56
     28.2830	 3788.00	 3741.96	-1330.21	 2882.28
     28.3090	 3758.00	 3746.74	-1364.99	 2879.98
     28.3350	 3699.00	 3751.64	-1428.89	 2877.66
     28.3610	 3667.00	 3756.68	-1465.93	 2875.33
     28.3870	 3697.00	 3761.86	-1441.11	 2872.99
     28.4130	 3768.00	 3767.17	-1375.42	 2870.63
     28.4390	 3748.00	 3772.61	-1400.86	 2868.25
     28.4650	 3807.00	 3778.19	-1347.44	 2865.86
     28.4910	 3649.00	 3783.91	-1511.16	 2863.46
     28.5170	 3764.00	 3789.76	-1402.01	 2861.04
     28.5430	 3839.00	 3795.75	-1333.00	 2858.61
     28.5690	 3820.00	 3801.88	-1358.13	 2856.16
     28.5950	 3789.00	 3808.15	-1395.40	 2853.70
     28.6210	 3918.00	 3814.55	-1272.80	 2851.22
     28.6470	 3938.00	 3821.08	-1259.33	 2848.73
     28.6730	 3810.00	 3827.75	-1394.00	 2846.23
     28.6990	 3908.00	 3834.54	-1302.79	 2843.71
     28.7250	 3885.00	 3841.45	-1332.70	 2841.18
     28.7510	 3864.00	 3848.49	-1360.74	 2838.63
     28.7770	 3803.00	 3855.64	-1428.89	 2836.07
     28.8030	 3939.00	 3862.91	-1300.16	 2833.49
     28.8290	 3861.00	 3870.27	-1385.52	 2830.90
     28.8550	 3824.00	 3877.74	-1429.99	 2828.30
     28.8810	 3868.00	 3885.29	-1393.54	 2825.69
     28.9070	 3655.00	 3892.93	-1614.18	 2823.06
     28.9330	 3771.00	 3900.63	-1505.88	 2820.42
     28.9590	 3791.00	 3908.39	-1493.64	 2817.76
     28.9850	 3768.00	 3916.20	-1524.45	 2815.09
     29.0110	 3750.00	 3924.05	-1550.30	 2812.41
     29.0370	 3764.00	 3931.91	-1544.16	 2809.72
     29.0630	 3797.00	 3939.78	-1519.03	 2807.01
     29.0890	 3765.00	 3947.64	-1558.89	 2804.29
     29.1150	 3894.00	 3955.48	-1437.73	 2801.56
     29.1410	 3871.00	 3963.26	-1468.51	 2798.81
     29.1670	 3810.00	 3970.98	-1537.23	 2796.05
     29.1930	 3935.00	 3978.62	-1419.87	 2793.28
     29.2190	 3888.00	 3986.15	-1474.40	 2790.50
     29.2450	 3828.00	 3993.55	-1541.80	 2787.70
     29.2710	 3924.00	 4000.79	-1453.04	 2784.90
     29.2970	 3875.00	 4007.86	-1509.11	 2782.08
     29.3230	 3859.00	 4014.73	-1531.98	 2779.25
     29.3490	 3822.00	 4021.37	-1575.62	 2776.40
     29.3750	 3796.00	 4027.76	-1608.01	 2773.55
     29.4010	 3858.00	 4033.87	-1552.12	 2770.68
     29.4270	 3862.00	 4039.68	-1553.93	 2767.80
     29.4530	 3850.00	 4045.17	-1571.42	 2764.91
     29.4790	 3962.00	 4050.30	-1464.55	 2762.01
     29.5050	 3938.00	 4055.05	-1493.30	 2759.10
     29.5310	 3867.00	 4059.40	-1568.65	 2756.17
     29.5570	 3842.00	 4063.32	-1597.57	 2753.24
     29.5830	 3878.00	 4066.80	-1565.05	 2750.29
     29.6090	 3873.00	 4069.81	-1573.06	 2747.33
     29.6350	 3777.00	 4072.34	-1671.59	 2744.36
     29.6610	 3815.00	 4074.36	-1635.61	 2741.38
     29.6870	 3963.00	 4075.86	-1489.11	 2738.39
     29.7130	 3933.00	 4076.84	-1520.09	 2735.39
     29.7390	 3868.00	 4077.27	-1585.52	 2732.38
     29.7650	 3882.00	 4077.15	-1571.40	 2729.36
     29.7910	 3855.00	 4076.47	-1597.72	 2726.33
     29.8170	 3800.00	 4075.24	-1651.49	 2723.28
     29.8430	 3891.00	 4073.44	-1558.69	 2720.23
     29.8690	 3935.00	 4071.09	-1512.34	 2717.17
     29.8950	 3883.00	 4068.18	-1561.43	 2714.10
     29.9210	 3883.00	 4064.72	-1557.97	 2711.01
     29.9470	 3889.00	 4060.72	-1547.97	 2707.92
     29.9730	 3850.00	 4056.20	-1582.45	 2704.82
     29.9990	 3811.00	 4051.17	-1616.42	 2701.71
     30.0250	 3887.00	 4045.64	-1534.89	 2698.59
     30.0510	 3847.00	 4039.63	-1568.88	 2695.46
     30.0770	 3720.00	 4033.16	-1689.41	 2692.32
     30.1030	 3796.00	 4026.26	-1606.51	 2689.17
     30.1290	 3844.00	 4018.94	-1551.19	 2686.01
     30.1550	 3813.00	 4011.23	-1574.48	 2682.85
     30.1810	 3823.00	 4003.16	-1556.41	 2679.67
     30.2070	 3829.00	 3994.74	-1541.99	 2676.49
     30.2330	 3814.00	 3986.01	-1548.26	 2673.29
     30.2590	 3776.00	 3977.00	-1577.25	 2670.09
     30.2850	 3821.00	 3967.72	-1522.97	 2666.88
     30.3110	 3852.00	 3958.21	-1482.46	 2663.66
     30.3370	 3825.00	 3948.49	-1499.74	 2660.44
     30.3630	 3854.00	 3938.59	-1460.84	 2657.20
     30.3890	 3806.00	 3928.53	-1498.78	 2653.96
     30.4150	 3814.00	 3918.34	-1480.59	 2650.71
     30.4410	 3842.00	 3908.04	-1442.29	 2647.45
     30.4670	 3836.00	 3897.66	-1437.91	 2644.18
     30.4930	 3837.00	 3887.21	-1426.46	 2640.91
     30.5190	 3851.00	 3876.72	-1401.97	 2637.63
     30.5450	 3777.00	 3866.22	-1465.47	 2634.34
     30.5710	 3787.00	 3855.71	-1444.96	 2631.04
     30.5970	 3857.00	 3845.22	-1364.47	 2627.74
     30.6230	 3780.00	 3834.76	-1431.01	 2624.43
     30.6490	 3760.00	 3824.36	-1440.61	 2621.11
     30.6750	 3737.00	 3814.02	-1453.27	 2617.79
     30.7010	 3817.00	 3803.75	-1363.00	 2614.46
     30.7270	 3827.00	 3793.59	-1342.84	 2611.12
     30.7530	 3714.00	 3783.52	-1445.77	 2607.77
     30.7790	 3833.00	 3773.57	-1316.82	 2604.42
     30.8050	 3755.00	 3763.75	-1385.00	 2601.06
     30.8310	 3755.00	 3754.06	-1375.31	 2597.70
     30.8570	 3668.00	 3744.51	-1452.76	 2594.33
     30.8830	 3746.00	 3735.11	-1365.36	 2590.95
     30.9090	 3807.00	 3725.87	-1295.12	 2587.57
     30.9350	 3715.00	 3716.79	-1378.04	 2584.18
     30.9610	 3684.00	 3707.89	-1400.14	 2580.79
     30.9870	 3628.00	 3699.15	-1447.40	 2577.39
     31.0130	 3638.00	 3690.59	-1428.84	 2573.98
     31.0390	 3617.00	 3682.21	-1441.46	 2570.57
     31.0650	 3727.00	 3674.01	-1323.26	 2567.16
     31.0910	 3625.00	 3666.00	-1417.25	 2563.74
     31.1170	 3654.00	 3658.18	-1380.43	 2560.31
     31.1430	 3654.00	 3650.55	-1372.80	 2556.88
     31.1690	 3660.00	 3643.11	-1359.36	 2553.44
     31.1950	 3621.00	 3635.87	-1391.12	 2550.00
     31.2210	 3637.00	 3628.81	-1368.06	 2546.56
     31.2470	 3669.00	 3621.96	-1329.21	 2543.11
     31.2730	 3680.00	 3615.29	-1311.54	 2539.65
     31.2990	 3736.00	 3608.82	-1249.07	 2536.19
     31.3250	 3611.00	 3602.55	-1367.80	 2532.73
     31.3510	 3595.00	 3596.48	-1377.73	 2529.26
     31.3770	 3653.00	 3590.59	-1313.84	 2525.79
     31.4030	 3677.00	 3584.91	-1284.16	 2522.31
     31.4290	 3664.00	 3579.41	-1291.66	 2518.83
     31.4550	 3636.00	 3574.11	-1314.36	 2515.35
     31.4810	 3679.00	 3569.01	-1266.26	 2511.86
     31.5070	 3649.00	 3564.10	-1291.35	 2508.37
     31.5330	 3652.00	 3559.38	-1283.63	 2504.88
     31.5590	 3627.00	 3554.85	-1304.10	 2501.38
     31.5850	 3596.00	 3550.52	-1330.77	 2497.88
     31.6110	 3584.00	 3546.38	-1338.63	 2494.37
     31.6370	 3725.00	 3542.42	-1193.67	 2490.86
     31.6630	 3546.00	 3538.66	-1368.91	 2487.35
     31.6890	 3642.00	 3535.09	-1269.34	 2483.84
     31.7150	 3674.00	 3531.71	-1233.96	 2480.33
     31.7410	 3619.00	 3528.52	-1285.77	 2476.81
     31.7670	 3653.00	 3525.52	-1248.77	 2473.29
     31.7930	 3627.00	 3522.70	-1271.95	 2469.76
     31.8190	 3655.00	 3520.08	-1241.33	 2466.24
     31.8450	 3582.00	 3517.64	-1311.89	 2462.71
     31.8710	 3593.00	 3515.40	-1298.65	 2459.18
     31.8970	 3713.00	 3513.34	-1176.59	 2455.65
     31.9230	 3621.00	 3511.48	-1266.73	 2452.12
     31.9490	 3583.00	 3509.81	-1303.06	 2448.58
     31.9750	 3618.00	 3508.32	-1266.57	 2445.04
     32.0010	 3653.00	 3507.03	-1230.28	 2441.50
     32.0270	 3613.00	 3505.93	-1269.18	 2437.96
     32.0530	 3620.00	 3505.03	-1261.28	 2434.42
     32.0790	 3590.00	 3504.32	-1290.57	 2430.88
     32.1050	 3579.00	 3503.81	-1301.06	 2427.34
     32.1310	 3548.00	 3503.49	-1331.74	 2423.79
     32.1570	 3606.00	 3503.37	-1273.62	 2420.24
     32.1830	 3646.00	 3503.45	-1233.70	 2416.70
     32.2090	 3693.00	 3503.73	-1186.98	 2413.15
     32.2350	 3628.00	 3504.22	-1252.47	 2409.60
     32.2610	 3480.00	 3504.91	-1401.16	 2406.05
     32.2870	 3536.00	 3505.81	-1346.06	 2402.50
     32.3130	 3537.00	 3506.91	-1346.16	 2398.95
     32.3390	 3564.00	 3508.23	-1320.48	 2395.40
     32.3650	 3579.00	 3509.76	-1307.01	 2391.85
     32.3910	 3545.00	 3511.51	-1342.76	 2388.30
     32.4170	 3592.00	 3513.48	-1297.73	 2384.75
     32.4430	 3648.00	 3515.67	-1243.92	 2381.21
     32.4690	 3579.00	 3518.09	-1315.34	 2377.66
     32.4950	 3557.00	 3520.73	-1339.98	 2374.11
     32.5210	 3551.00	 3523.60	-1348.85	 2370.56
     32.5470	 3540.00	 3526.71	-1362.96	 2367.01
     32.5730	 3621.00	 3530.06	-1285.31	 2363.46
     32.5990	 3620.00	 3533.65	-1289.90	 2359.92
     32.6250	 3607.00	 3537.49	-1306.74	 2356.37
     32.6510	 3604.00	 3541.58	-1313.83	 2352.83
     32.6770	 3619.00	 3545.92	-1303.17	 2349.28
     32.7030	 3707.00	 3550.52	-1219.77	 2345.74
     32.7290	 3741.00	 3555.39	-1190.64	 2342.20
     32.7550	 3735.00	 3560.52	-1201.77	 2338.66
     32.7810	 3681.00	 3565.93	-1261.18	 2335.12
     32.8070	 3686.00	 3571.61	-1261.86	 2331.59
     32.8330	 3730.00	 3577.58	-1223.83	 2328.05
     32.8590	 3662.00	 3583.83	-1298.08	 2324.52
     32.8850	 3622.00	 3590.38	-1344.63	 2320.99
     32.9110	 3693.00	 3597.23	-1280.48	 2317.46
     32.9370	 3657.00	 3604.39	-1323.64	 2313.93
     32.9630	 3684.00	 3611.86	-1304.11	 2310.41
     32.9890	 3657.00	 3619.65	-1338.90	 2306.89
     33.0150	 3692.00	 3627.76	-1312.01	 2303.37
     33.0410	 3732.00	 3636.20	-1280.45	 2299.85
     33.0670	 3675.00	 3644.98	-1346.23	 2296.33
     33.0930	 3780.00	 3654.10	-1250.35	 2292.82
     33.1190	 3701.00	 3663.58	-1338.83	 2289.31
     33.1450	 3797.00	 3673.41	-1252.66	 2285.80
     33.1710	 3784.00	 3683.61	-1275.86	 2282.30
     33.1970	 3771.00	 3694.18	-1299.43	 2278.80
     33.2230	 3784.00	 3705.12	-1297.38	 2275.30
     33.2490	 3879.00	 3716.46	-1213.71	 2271.81
     33.2750	 3828.00	 3728.19	-1276.44	 2268.32
     33.3010	 3797.00	 3740.33	-1319.58	 2264.83
     33.3270	 3867.00	 3752.87	-1262.12	 2261.35
     33.3530	 3845.00	 3765.83	-1297.08	 2257.87
     33.3790	 3862.00	 3779.22	-1293.47	 2254.39
     33.4050	 3878.00	 3793.03	-1291.28	 2250.92
     33.4310	 3891.00	 3807.29	-1292.54	 2247.45
     33.4570	 4045.00	 3821.99	-1153.24	 2243.98
     33.4830	 3939.00	 3837.15	-1274.40	 2240.52
     33.5090	 3900.00	 3852.77	-1329.02	 2237.07
     33.5350	 3970.00	 3868.86	-1275.11	 2233.61
     33.5610	 4037.00	 3885.43	-1224.68	 2230.17
     33.5870	 4058.00	 3902.47	-1220.72	 2226.72
     33.6130	 4017.00	 3920.00	-1279.25	 2223.28
     33.6390	 4022.00	 3938.03	-1292.28	 2219.85
     33.6650	 4167.00	 3956.56	-1165.81	 2216.42
     33.6910	 4078.00	 3975.59	-1273.84	 2213.00
     33.7170	 4117.00	 3995.12	-1254.37	 2209.58
     33.7430	 4090.00	 4015.17	-1301.42	 2206.16
     33.7690	 4103.00	 4035.74	-1308.99	 2202.75
     33.7950	 4116.00	 4056.82	-1317.07	 2199.35
     33.8210	 4241.00	 4078.41	-1213.66	 2195.95
     33.8470	 4259.00	 4100.53	-1217.78	 2192.56
     33.8730	 4191.00	 4123.16	-1308.41	 2189.17
     33.8990	 4264.00	 4146.31	-1258.56	 2185.78
     33.9250	 4260.00	 4169.96	-1286.21	 2182.41
     33.9510	 4315.00	 4194.12	-1255.37	 2179.04
     33.9770	 4368.00	 4218.78	-1227.03	 2175.67
     34.0030	 4418.00	 4243.93	-1202.18	 2172.31
     34.0290	 4371.00	 4269.56	-1274.81	 2168.96
     34.0550	 4408.00	 4295.66	-1263.91	 2165.61
     34.0810	 4405.00	 4322.21	-1293.46	 2162.27
     34.1070	 4372.00	 4349.20	-1353.45	 2158.93
     34.1330	 4443.00	 4376.61	-1309.86	 2155.60
     34.1590	 4640.00	 4404.42	-1140.67	 2152.28
     34.1850	 4573.00	 4432.60	-1235.85	 2148.97
     34.2110	 4549.00	 4461.13	-1288.38	 2145.66
     34.2370	 4615.00	 4490.08	-1251.33	 2142.35
     34.2630	 4592.00	 4519.21	-1303.46	 2139.06
     34.2890	 4657.00	 4548.59	-1267.84	 2135.77
     34.3150	 4710.00	 4578.17	-1244.42	 2132.49
     34.3410	 4698.00	 4607.91	-1286.16	 2129.21
     34.3670	 4725.00	 4637.77	-1289.02	 2125.94
     34.3930	 4772.00	 4667.77	-1272.02	 2122.68
     34.4190	 4813.00	 4697.71	-1260.96	 2119.43
     34.4450	 4945.00	 4727.62	-1158.87	 2116.18
     34.4710	 4923.00	 4757.42	-1210.67	 2112.94
     34.4970	 4916.00	 4787.06	-1247.31	 2109.71
     34.5230	 4913.00	 4816.47	-1279.72	 2106.48
     34.5490	 4891.00	 4845.57	-1330.82	 2103.27
     34.5750	 4885.00	 4874.30	-1365.55	 2100.06
     34.6010	 5068.00	 4902.57	-1210.82	 2096.86
     34.6270	 5020.00	 4930.32	-1286.57	 2093.66
     34.6530	 5092.00	 4957.45	-1241.70	 2090.48
     34.6790	 5008.00	 4983.89	-1352.14	 2087.30
     34.7050	 5061.00	 5009.56	-1324.81	 2084.13
     34.7310	 5290.00	 5034.37	-1120.62	 2080.97
     34.7570	 5278.00	 5058.23	-1156.48	 2077.82
     34.7830	 5249.00	 5081.07	-1208.32	 2074.67
     34.8090	 5182.00	 5102.80	-1297.05	 2071.53
     34.8350	 5219.00	 5123.33	-1280.58	 2068.41
     34.8610	 5298.00	 5142.60	-1220.85	 2065.29
     34.8870	 5338.00	 5160.53	-1198.78	 2062.17
     34.9130	 5258.00	 5177.03	-1295.28	 2059.07
     34.9390	 5237.00	 5192.05	-1331.30	 2055.98
     34.9650	 5364.00	 5205.53	-1217.78	 2052.89
     34.9910	 5475.00	 5217.40	-1118.65	 2049.82
     35.0170	 5505.00	 5227.61	-1098.86	 2046.75
     35.0430	 5457.00	 5236.12	-1155.37	 2043.69
     35.0690	 5367.00	 5242.90	-1252.15	 2040.64
     35.0950	 5271.00	 5247.90	-1353.15	 2037.60
     35.1210	 5332.00	 5251.11	-1295.36	 2034.57
     35.1470	 5440.00	 5252.53	-1188.78	 2031.55
     35.1730	 5420.00	 5252.13	-1208.38	 2028.54
     35.1990	 5438.00	 5249.92	-1188.17	 2025.54
     35.2250	 5453.00	 5245.92	-1169.17	 2022.54
     35.2510	 5435.00	 5240.15	-1181.40	 2019.56
     35.2770	 5438.00	 5232.62	-1170.87	 2016.58
     35.3030	 5353.00	 5223.39	-1246.64	 2013.62
     35.3290	 5326.00	 5212.48	-1262.73	 2010.66
     35.3550	 5393.00	 5199.96	-1183.21	 2007.72
     35.3810	 5377.00	 5185.87	-1185.12	 2004.79
     35.4070	 5376.00	 5170.28	-1170.53	 2001.86
     35.4330	 5350.00	 5153.26	-1179.51	 1998.94
     35.4590	 5326.00	 5134.88	-1185.13	 1996.04
     35.4850	 5340.00	 5115.22	-1151.47	 1993.14
     35.5110	 5276.00	 5094.35	-1194.60	 1990.26
     35.5370	 5243.00	 5072.37	-1205.62	 1987.38
     35.5630	 5270.00	 5049.35	-1155.60	 1984.52
     35.5890	 5278.00	 5025.38	-1123.63	 1981.67
     35.6150	 5220.00	 5000.55	-1156.80	 1978.82
     35.6410	 5216.00	 4974.94	-1135.19	 1975.99
     35.6670	 5132.00	 4948.65	-1192.90	 1973.17
     35.6930	 5033.00	 4921.75	-1265.00	 1970.35
     35.7190	 5050.00	 4894.34	-1220.59	 1967.55
     35.7450	 4947.00	 4866.50	-1295.75	 1964.76
     35.7710	 4883.00	 4838.31	-1331.56	 1961.98
     35.7970	 4825.00	 4809.84	-1361.09	 1959.21
     35.8230	 4769.00	 4781.18	-1388.43	 1956.45
     35.8490	 4762.00	 4752.39	-1366.64	 1953.70
     35.8750	 4752.00	 4723.56	-1347.81	 1950.97
     35.9010	 4751.00	 4694.75	-1320.00	 1948.24
     35.9270	 4718.00	 4666.01	-1324.26	 1945.53
     35.9530	 4677.00	 4637.43	-1336.68	 1942.82
     35.9790	 4564.00	 4609.05	-1421.30	 1940.13
     36.0050	 4581.00	 4580.93	-1376.18	 1937.45
     36.0310	 4595.00	 4553.13	-1334.38	 1934.78
     36.0570	 4498.00	 4525.71	-1403.96	 1932.12
     36.0830	 4443.00	 4498.71	-1431.96	 1929.47
     36.1090	 4544.00	 4472.18	-1304.43	 1926.84
     36.1350	 4551.00	 4446.17	-1271.42	 1924.21
     36.1610	 4400.00	 4420.73	-1396.98	 1921.60
     36.1870	 4360.00	 4395.92	-1412.17	 1919.00
     36.2130	 4495.00	 4371.77	-1253.02	 1916.41
     36.2390	 4357.00	 4348.35	-1367.60	 1913.83
     36.2650	 4254.00	 4325.70	-1447.95	 1911.26
     36.2910	 4249.00	 4303.88	-1431.13	 1908.71
     36.3170	 4209.00	 4282.95	-1450.20	 1906.16
     36.3430	 4237.00	 4262.98	-1402.23	 1903.63
     36.3690	 4271.00	 4244.02	-1349.27	 1901.11
     36.3950	 4321.00	 4226.15	-1281.40	 1898.61
     36.4210	 4243.00	 4209.45	-1342.70	 1896.11
     36.4470	 4120.00	 4194.00	-1450.25	 1893.63
     36.4730	 4215.00	 4179.88	-1341.13	 1891.15
     36.4990	 4232.00	 4167.16	-1311.41	 1888.70
     36.5250	 4244.00	 4155.93	-1288.18	 1886.25
     36.5510	 4086.00	 4146.26	-1436.51	 1883.81
     36.5770	 4177.00	 4138.18	-1337.43	 1881.39
     36.6030	 4114.00	 4131.71	-1393.96	 1878.98
     36.6290	 4118.00	 4126.81	-1385.06	 1876.58
     36.6550	 4136.00	 4123.37	-1363.62	 1874.19
     36.6810	 4027.00	 4121.15	-1470.40	 1871.82
     36.7070	 4051.00	 4119.83	-1445.08	 1869.46
     36.7330	 3964.00	 4118.91	-1531.16	 1867.11
     36.7590	 4170.00	 4117.75	-1324.00	 1864.77
     36.7850	 4131.00	 4115.55	-1360.80	 1862.45
     36.8110	 4108.00	 4111.42	-1379.67	 1860.13
     36.8370	 4006.00	 4104.44	-1474.69	 1857.83
     36.8630	 3855.00	 4093.76	-1615.01	 1855.55
     36.8890	 3925.00	 4078.72	-1529.97	 1853.27
     36.9150	 3967.00	 4058.92	-1468.17	 1851.01
     36.9410	 3811.00	 4034.28	-1599.53	 1848.76
     36.9670	 3863.00	 4005.06	-1518.31	 1846.53
     36.9930	 3948.00	 3971.78	-1400.03	 1844.30
     37.0190	 3843.00	 3935.17	-1468.42	 1842.09
     37.0450	 3770.00	 3896.08	-1502.33	 1839.89
     37.0710	 3729.00	 3855.39	-1502.64	 1837.71
     37.0970	 3713.00	 3813.90	-1477.15	 1835.54
     37.1230	 3653.00	 3772.33	-1495.58	 1833.38
     37.1490	 3704.00	 3731.25	-1403.50	 1831.23
     37.1750	 3674.00	 3691.09	-1393.34	 1829.10
     37.2010	 3571.00	 3652.14	-1457.39	 1826.97
     37.2270	 3531.00	 3614.60	-1459.85	 1824.87
     37.2530	 3453.00	 3578.55	-1501.80	 1822.77
     37.2790	 3450.00	 3544.03	-1470.28	 1820.69
     37.3050	 3465.00	 3511.00	-1422.25	 1818.62
     37.3310	 3473.00	 3479.41	-1382.66	 1816.56
     37.3570	 3433.00	 3449.20	-1392.45	 1814.52
     37.3830	 3299.00	 3420.29	-1497.54	 1812.49
     37.4090	 3316.00	 3392.58	-1452.83	 1810.48
     37.4350	 3288.00	 3366.00	-1454.25	 1808.47
     37.4610	 3303.00	 3340.46	-1413.71	 1806.48
     37.4870	 3273.00	 3315.89	-1419.14	 1804.50
     37.5130	 3211.00	 3292.22	-1457.47	 1802.54
     37.5390	 3174.00	 3269.39	-1471.64	 1800.59
     37.5650	 3155.00	 3247.33	-1468.58	 1798.65
     37.5910	 3102.00	 3226.00	-1500.25	 1796.73
     37.6170	 3059.00	 3205.35	-1522.60	 1794.82
     37.6430	 3114.00	 3185.33	-1447.58	 1792.92
     37.6690	 3088.00	 3165.91	-1454.16	 1791.03
     37.6950	 3025.00	 3147.06	-1498.31	 1789.16
     37.7210	 3011.00	 3128.73	-1493.98	 1787.31
     37.7470	 3031.00	 3110.91	-1456.16	 1785.46
     37.7730	 3050.00	 3093.57	-1419.82	 1783.63
     37.7990	 2981.00	 3076.68	-1471.93	 1781.81
     37.8250	 2977.00	 3060.23	-1459.48	 1780.01
     37.8510	 3033.00	 3044.19	-1387.44	 1778.22
     37.8770	 3002.00	 3028.56	-1402.81	 1776.44
     37.9030	 2969.00	 3013.30	-1420.55	 1774.67
     37.9290	 2897.00	 2998.42	-1477.67	 1772.92
     37.9550	 2859.00	 2983.90	-1501.15	 1771.19
     37.9810	 2921.00	 2969.72	-1424.97	 1769.46
     38.0070	 2882.00	 2955.87	-1450.12	 1767.75
     38.0330	 2847.00	 2942.34	-1471.59	 1766.05
     38.0590	 2924.00	 2929.13	-1381.38	 1764.37
     38.0850	 2925.00	 2916.22	-1367.47	 1762.70
     38.1110	 2838.00	 2903.60	-1441.85	 1761.04
     38.1370	 2863.00	 2891.26	-1404.51	 1759.40
     38.1630	 2795.00	 2879.21	-1460.46	 1757.77
     38.1890	 2856.00	 2867.42	-1387.67	 1756.15
     38.2150	 2863.00	 2855.90	-1369.15	 1754.55
     38.2410	 2890.00	 2844.63	-1330.88	 1752.96
     38.2670	 2936.00	 2833.61	-1273.86	 1751.38
     38.2930	 2890.00	 2822.83	-1309.08	 1749.82
     38.3190	 2808.00	 2812.29	-1380.54	 1748.27
     38.3450	 2847.00	 2801.98	-1331.23	 1746.74
     38.3710	 2879.00	 2791.89	-1289.14	 1745.22
     38.3970	 2791.00	 2782.03	-1367.28	 1743.71
     38.4230	 2751.00	 2772.37	-1397.62	 1742.21
     38.4490	 2753.00	 2762.93	-1386.18	 1740.73
     38.4750	 2772.00	 2753.69	-1357.94	 1739.26
     38.5010	 2773.00	 2744.65	-1347.90	 1737.81
     38.5270	 2806.00	 2735.80	-1306.05	 1736.37
     38.5530	 2780.00	 2727.15	-1323.40	 1734.94
     38.5790	 2788.00	 2718.68	-1306.93	 1733.52
     38.6050	 2751.00	 2710.39	-1335.64	 1732.12
     38.6310	 2740.00	 2702.28	-1338.53	 1730.74
     38.6570	 2813.00	 2694.35	-1257.60	 1729.36
     38.6830	 2688.00	 2686.59	-1374.84	 1728.00
     38.7090	 2676.00	 2678.99	-1379.24	 1726.65
     38.7350	 2710.00	 2671.55	-1337.80	 1725.32
     38.7610	 2779.00	 2664.28	-1261.53	 1724.00
     38.7870	 2640.00	 2657.16	-1393.41	 1722.69
     38.8130	 2693.00	 2650.20	-1333.45	 1721.40
     38.8390	 2667.00	 2643.39	-1352.64	 1720.12
     38.8650	 2663.00	 2636.72	-1349.97	 1718.85
     38.8910	 2722.00	 2630.20	-1284.45	 1717.60
     38.9170	 2720.00	 2623.82	-1280.07	 1716.36
     38.9430	 2695.00	 2617.58	-1298.83	 1715.13
     38.9690	 2605.00	 2611.48	-1382.73	 1713.92
     38.9950	 2710.00	 2605.51	-1271.76	 1712.72
     39.0210	 2687.00	 2599.68	-1288.93	 1711.53
     39.0470	 2682.00	 2593.97	-1288.22	 1710.36
     39.0730	 2569.00	 2588.39	-1395.64	 1709.20
     39.0990	 2651.00	 2582.93	-1308.18	 1708.05
     39.1250	 2628.00	 2577.60	-1325.85	 1706.92
     39.1510	 2633.00	 2572.39	-1315.64	 1705.80
     39.1770	 2593.00	 2567.30	-1350.55	 1704.69
     39.2030	 2569.00	 2562.32	-1369.57	 1703.60
     39.2290	 2641.00	 2557.47	-1292.72	 1702.52
     39.2550	 2698.00	 2552.72	-1230.97	 1701.45
     39.2810	 2693.00	 2548.09	-1231.34	 1700.40
     39.3070	 2719.00	 2543.57	-1200.82	 1699.36
     39.3330	 2597.00	 2539.15	-1318.40	 1698.33
     39.3590	 2601.00	 2534.85	-1310.10	 1697.31
     39.3850	 2572.00	 2530.65	-1334.90	 1696.31
     39.4110	 2515.00	 2526.55	-1387.80	 1695.32
     39.4370	 2596.00	 2522.56	-1302.81	 1694.35
     39.4630	 2590.00	 2518.67	-1304.92	 1693.38
     39.4890	 2624.00	 2514.88	-1267.13	 1692.43
     39.5150	 2585.00	 2511.20	-1302.45	 1691.50
     39.5410	 2493.00	 2507.61	-1390.86	 1690.57
     39.5670	 2526.00	 2504.12	-1354.37	 1689.66
     39.5930	 2568.00	 2500.73	-1308.98	 1688.76
     39.6190	 2527.00	 2497.43	-1346.68	 1687.88
     39.6450	 2603.00	 2494.23	-1267.48	 1687.01
     39.6710	 2613.00	 2491.13	-1254.38	 1686.15
     39.6970	 2516.00	 2488.11	-1348.36	 1685.30
     39.7230	 2562.00	 2485.20	-1299.45	 1684.47
     39.7490	 2530.00	 2482.37	-1328.62	 1683.64
     39.7750	 2642.00	 2479.64	-1213.89	 1682.84
     39.8010	 2592.00	 2477.00	-1261.25	 1682.04
     39.8270	 2514.00	 2474.45	-1336.70	 1681.26
     39.8530	 2546.00	 2472.00	-1302.25	 1680.49
     39.8790	 2522.00	 2469.63	-1323.88	 1679.73
     39.9050	 2475.00	 2467.36	-1368.61	 1678.98
     39.9310	 2511.00	 2465.18	-1330.43	 1678.25
     39.9570	 2531.00	 2463.08	-1308.33	 1677.53
     39.9830	 2549.00	 2461.08	-1288.33	 1676.82
     40.0090	 2515.00	 2459.17	-1320.42	 1676.12
     40.0350	 2531.00	 2457.35	-1302.60	 1675.44
     40.0610	 2576.00	 2455.62	-1255.87	 1674.77
     40.0870	 2541.00	 2453.98	-1289.23	 1674.11
     40.1130	 2540.00	 2452.43	-1288.68	 1673.47
     40.1390	 2482.00	 2450.97	-1345.22	 1672.83
     40.1650	 2456.00	 2449.61	-1369.86	 1672.21
     40.1910	 2469.00	 2448.34	-1355.59	 1671.60
     40.2170	 2516.00	 2447.16	-1307.41	 1671.00
     40.2430	 2536.00	 2446.07	-1286.32	 1670.42
     40.2690	 2526.00	 2445.08	-1295.33	 1669.85
     40.2950	 2514.00	 2444.18	-1306.43	 1669.29
     40.3210	 2504.00	 2443.38	-1315.63	 1668.74
     40.3470	 2531.00	 2442.68	-1287.93	 1668.20
     40.3730	 2528.00	 2442.07	-1290.32	 1667.68
     40.3990	 2497.00	 2441.56	-1320.81	 1667.16
     40.4250	 2466.00	 2441.15	-1351.40	 1666.66
     40.4510	 2485.00	 2440.84	-1332.09	 1666.17
     40.4770	 2512.00	 2440.64	-1304.89	 1665.69
     40.5030	 2491.00	 2440.53	-1325.78	 1665.23
     40.5290	 2508.00	 2440.54	-1308.79	 1664.77
     40.5550	 2514.00	 2440.65	-1302.90	 1664.33
     40.5810	 2485.00	 2440.86	-1332.11	 1663.90
     40.6070	 2463.00	 2441.19	-1354.44	 1663.48
     40.6330	 2442.00	 2441.63	-1375.88	 1663.07
     40.6590	 2422.00	 2442.18	-1396.43	 1662.68
     40.6850	 2432.00	 2442.86	-1387.11	 1662.29
     40.7110	 2430.00	 2443.64	-1389.89	 1661.92
     40.7370	 2458.00	 2444.55	-1362.80	 1661.56
     40.7630	 2480.00	 2445.59	-1341.84	 1661.21
     40.7890	 2537.00	 2446.75	-1286.00	 1660.87
     40.8150	 2483.00	 2448.04	-1341.29	 1660.54
     40.8410	 2457.00	 2449.46	-1368.71	 1660.23
     40.8670	 2455.00	 2451.02	-1372.27	 1659.92
     40.8930	 2514.00	 2452.72	-1314.97	 1659.63
     40.9190	 2438.00	 2454.56	-1392.81	 1659.34
     40.9450	 2475.00	 2456.55	-1357.80	 1659.07
     40.9710	 2540.00	 2458.69	-1294.94	 1658.81
     40.9970	 2497.00	 2460.99	-1340.24	 1658.56
     41.0230	 2479.00	 2463.44	-1360.69	 1658.32
     41.0490	 2451.00	 2466.06	-1391.31	 1658.09
     41.0750	 2518.00	 2468.86	-1327.11	 1657.87
     41.1010	 2539.00	 2471.82	-1309.07	 1657.66
     41.1270	 2546.00	 2474.97	-1305.22	 1657.47
     41.1530	 2565.00	 2478.31	-1289.56	 1657.28
     41.1790	 2468.00	 2481.85	-1390.10	 1657.11
     41.2050	 2460.00	 2485.58	-1401.83	 1656.94
     41.2310	 2482.00	 2489.53	-1383.78	 1656.79
     41.2570	 2555.00	 2493.69	-1314.94	 1656.64
     41.2830	 2455.00	 2498.08	-1419.33	 1656.51
     41.3090	 2480.00	 2502.70	-1398.95	 1656.39
     41.3350	 2476.00	 2507.57	-1407.82	 1656.27
     41.3610	 2487.00	 2512.70	-1401.95	 1656.17
     41.3870	 2452.00	 2518.09	-1442.34	 1656.08
     41.4130	 2519.00	 2523.76	-1381.01	 1656.00
     41.4390	 2548.00	 2529.72	-1357.97	 1655.92
     41.4650	 2530.00	 2535.99	-1382.24	 1655.86
     41.4910	 2488.00	 2542.59	-1430.84	 1655.81
     41.5170	 2457.00	 2549.52	-1468.77	 1655.77
     41.5430	 2513.00	 2556.80	-1420.05	 1655.74
     41.5690	 2400.00	 2564.46	-1540.71	 1655.71
     41.5950	 2451.00	 2572.51	-1497.76	 1655.70
     41.6210	 2465.00	 2580.98	-1492.23	 1655.70
     41.6470	 2494.00	 2589.90	-1472.15	 1655.70
     41.6730	 2460.00	 2599.28	-1515.53	 1655.72
     41.6990	 2452.00	 2609.16	-1533.41	 1655.75
     41.7250	 2570.00	 2619.57	-1425.82	 1655.78
     41.7510	 2447.00	 2630.54	-1559.79	 1655.82
     41.7770	 2574.00	 2642.11	-1444.36	 1655.88
     41.8030	 2485.00	 2654.33	-1545.58	 1655.94
     41.8290	 2531.00	 2667.25	-1512.50	 1656.01
     41.8550	 2467.00	 2680.91	-1590.16	 1656.10
     41.8810	 2435.00	 2695.37	-1636.62	 1656.19
     41.9070	 2601.00	 2710.69	-1485.94	 1656.29
     41.9330	 2419.00	 2726.96	-1684.21	 1656.39
     41.9590	 2572.00	 2744.24	-1548.49	 1656.51
     41.9850	 2559.00	 2762.62	-1579.87	 1656.64
     42.0110	 2527.00	 2782.21	-1631.46	 1656.77
     42.0370	 2505.00	 2803.12	-1674.37	 1656.92
     42.0630	 2538.00	 2825.46	-1663.71	 1657.07
     42.0890	 2603.00	 2849.39	-1622.64	 1657.23
     42.1150	 2676.00	 2875.05	-1575.30	 1657.40
     42.1410	 2744.00	 2902.63	-1534.88	 1657.58
     42.1670	 2748.00	 2932.32	-1560.57	 1657.77
     42.1930	 2865.00	 2964.35	-1475.60	 1657.97
     42.2190	 2908.00	 2998.97	-1467.22	 1658.17
     42.2450	 3024.00	 3036.46	-1388.71	 1658.38
     42.2710	 3142.00	 3077.14	-1311.39	 1658.60
     42.2970	 3104.00	 3121.35	-1393.60	 1658.83
     42.3230	 3162.00	 3169.49	-1383.74	 1659.07
     42.3490	 3302.00	 3221.99	-1296.24	 1659.31
     42.3750	 3443.00	 3279.33	-1212.58	 1659.56
     42.4010	 3526.00	 3342.02	-1192.27	 1659.83
     42.4270	 3573.00	 3410.61	-1213.86	 1660.09
     42.4530	 3679.00	 3485.69	-1182.94	 1660.37
     42.4790	 3766.00	 3567.87	-1178.12	 1660.66
     42.5050	 3882.00	 3657.75	-1152.00	 1660.95
     42.5310	 4022.00	 3755.89	-1110.14	 1661.25
     42.5570	 4072.00	 3862.73	-1166.98	 1661.55
     42.5830	 4310.00	 3978.64	-1044.89	 1661.87
     42.6090	 4442.00	 4103.65	-1037.90	 1662.19
     42.6350	 4507.00	 4237.41	-1106.66	 1662.52
     42.6610	 4663.00	 4379.03	-1092.28	 1662.86
     42.6870	 4771.00	 4526.98	-1132.23	 1663.20
     42.7130	 4800.00	 4678.78	-1255.03	 1663.55
     42.7390	 4879.00	 4830.98	-1328.23	 1663.91
     42.7650	 4979.00	 4979.09	-1376.34	 1664.27
     42.7910	 5100.00	 5117.75	-1394.00	 1664.65
     42.8170	 5142.00	 5241.02	-1475.27	 1665.02
     42.8430	 5175.00	 5342.90	-1544.15	 1665.41
     42.8690	 5191.00	 5417.97	-1603.22	 1665.80
     42.8950	 5246.00	 5462.09	-1592.34	 1666.20
     42.9210	 5265.00	 5472.86	-1584.11	 1666.61
     42.9470	 5278.00	 5449.86	-1548.11	 1667.02
     42.9730	 5296.00	 5394.69	-1474.94	 1667.44
     42.9990	 5250.00	 5310.60	-1436.85	 1667.86
     43.0250	 5201.00	 5202.16	-1377.41	 1668.30
     43.0510	 5069.00	 5074.68	-1381.93	 1668.73
     43.0770	 5002.00	 4933.77	-1308.02	 1669.18
     43.1030	 5052.00	 4784.76	-1109.01	 1669.63
     43.1290	 4971.00	 4632.50	-1037.75	 1670.08
     43.1550	 4785.00	 4481.03	-1072.28	 1670.55
     43.1810	 4697.00	 4333.50	-1012.75	 1671.02
     43.2070	 4623.00	 4192.20	 -945.45	 1671.49
     43.2330	 4509.00	 4058.63	 -925.88	 1671.97
     43.2590	 4389.00	 3933.63	 -920.88	 1672.46
     43.2850	 4168.00	 3817.58	-1025.83	 1672.95
     43.3110	 4124.00	 3710.42	 -962.67	 1673.45
     43.3370	 4008.00	 3611.87	 -980.12	 1673.95
     43.3630	 3840.00	 3521.54	-1057.79	 1674.46
     43.3890	 3819.00	 3438.81	 -996.06	 1674.97
     43.4150	 3646.00	 3363.16	-1093.41	 1675.49
     43.4410	 3454.00	 3293.99	-1216.24	 1676.01
     43.4670	 3389.00	 3230.73	-1217.98	 1676.54
     43.4930	 3335.00	 3172.83	-1214.08	 1677.08
     43.5190	 3228.00	 3119.79	-1268.04	 1677.62
     43.5450	 3143.00	 3071.13	-1304.38	 1678.16
     43.5710	 3010.00	 3026.42	-1392.67	 1678.71
     43.5970	 2969.00	 2985.30	-1392.55	 1679.27
     43.6230	 2894.00	 2947.39	-1429.64	 1679.83
     43.6490	 2891.00	 2912.39	-1397.64	 1680.39
     43.6750	 2732.00	 2880.02	-1524.27	 1680.96
     43.7010	 2652.00	 2850.03	-1574.28	 1681.53
     43.7270	 2618.00	 2822.18	-1580.43	 1682.11
     43.7530	 2618.00	 2796.28	-1554.53	 1682.69
     43.7790	 2619.00	 2772.16	-1529.41	 1683.28
     43.8050	 2572.00	 2749.64	-1553.89	 1683.87
     43.8310	 2484.00	 2728.60	-1620.85	 1684.47
     43.8570	 2586.00	 2708.89	-1499.14	 1685.07
     43.8830	 2513.00	 2690.41	-1553.66	 1685.67
     43.9090	 2531.00	 2673.05	-1518.30	 1686.28
     43.9350	 2435.00	 2656.73	-1597.98	 1686.89
     43.9610	 2433.00	 2641.35	-1584.60	 1687.51
     43.9870	 2484.00	 2626.85	-1519.10	 1688.13
     44.0130	 2425.00	 2613.17	-1564.42	 1688.75
     44.0390	 2466.00	 2600.23	-1510.48	 1689.38
     44.0650	 2469.00	 2587.99	-1495.24	 1690.01
     44.0910	 2520.00	 2576.40	-1432.65	 1690.64
     44.1170	 2523.00	 2565.41	-1418.66	 1691.28
     44.1430	 2499.00	 2554.97	-1432.22	 1691.92
     44.1690	 2426.00	 2545.07	-1495.32	 1692.57
     44.1950	 2485.00	 2535.65	-1426.90	 1693.21
     44.2210	 2490.00	 2526.69	-1412.94	 1693.86
     44.2470	 2454.00	 2518.16	-1440.41	 1694.52
     44.2730	 2558.00	 2510.04	-1328.29	 1695.18
     44.2990	 2532.00	 2502.30	-1346.55	 1695.84
     44.3250	 2427.00	 2494.91	-1444.16	 1696.50
     44.3510	 2473.00	 2487.86	-1391.11	 1697.17
     44.3770	 2443.00	 2481.16	-1414.41	 1697.83
     44.4030	 2512.00	 2474.74	-1338.99	 1698.51
     44.4290	 2449.00	 2468.59	-1395.84	 1699.18
     44.4550	 2423.00	 2462.72	-1415.97	 1699.86
     44.4810	 2421.00	 2457.11	-1412.36	 1700.54
     44.5070	 2486.00	 2451.74	-1341.99	 1701.22
     44.5330	 2452.00	 2446.59	-1370.84	 1701.90
     44.5590	 2382.00	 2441.69	-1435.94	 1702.59
     44.5850	 2416.00	 2436.98	-1397.23	 1703.28
     44.6110	 2389.00	 2432.47	-1419.72	 1703.97
     44.6370	 2374.00	 2428.14	-1430.39	 1704.66
     44.6630	 2388.00	 2424.00	-1412.25	 1705.36
     44.6890	 2430.00	 2420.04	-1366.29	 1706.05
     44.7150	 2428.00	 2416.24	-1364.49	 1706.75
     44.7410	 2492.00	 2412.60	-1296.85	 1707.45
     44.7670	 2445.00	 2409.11	-1340.36	 1708.16
     44.7930	 2452.00	 2405.77	-1330.02	 1708.86
     44.8190	 2464.00	 2402.56	-1314.81	 1709.57
     44.8450	 2424.00	 2399.49	-1351.74	 1710.27
     44.8710	 2468.00	 2396.55	-1304.80	 1710.98
     44.8970	 2462.00	 2393.74	-1307.99	 1711.69
     44.9230	 2509.00	 2391.04	-1258.29	 1712.41
     44.9490	 2397.00	 2388.46	-1367.71	 1713.12
     44.9750	 2354.00	 2385.98	-1408.23	 1713.83
     45.0010	 2352.00	 2383.62	-1407.87	 1714.55
     45.0270	 2388.00	 2381.36	-1369.61	 1715.27
     45.0530	 2450.00	 2379.19	-1305.44	 1715.98
     45.0790	 2383.00	 2377.12	-1370.37	 1716.70
     45.1050	 2361.00	 2375.15	-1390.40	 1717.42
     45.1310	 2394.00	 2373.26	-1355.51	 1718.14
     45.1570	 2393.00	 2371.46	-1354.71	 1718.86
     45.1830	 2390.00	 2369.74	-1355.99	 1719.58
     45.2090	 2400.00	 2368.10	-1344.35	 1720.31
     45.2350	 2418.00	 2366.54	-1324.79	 1721.03
     45.2610	 2383.00	 2365.06	-1358.31	 1721.75
     45.2870	 2386.00	 2363.65	-1353.90	 1722.48
     45.3130	 2438.00	 2362.31	-1300.56	 1723.20
     45.3390	 2389.00	 2361.04	-1348.29	 1723.92
     45.3650	 2387.00	 2359.84	-1349.09	 1724.65
     45.3910	 2437.00	 2358.70	-1297.95	 1725.37
     45.4170	 2392.00	 2357.62	-1341.87	 1726.10
     45.4430	 2362.00	 2356.61	-1370.86	 1726.82
     45.4690	 2357.00	 2355.65	-1374.90	 1727.55
     45.4950	 2328.00	 2354.75	-1403.00	 1728.27
     45.5210	 2340.00	 2353.91	-1390.16	 1729.00
     45.5470	 2340.00	 2353.12	-1389.37	 1729.72
     45.5730	 2357.00	 2352.38	-1371.63	 1730.45
     45.5990	 2365.00	 2351.70	-1362.95	 1731.17
     45.6250	 2369.00	 2351.06	-1358.31	 1731.89
     45.6510	 2385.00	 2350.47	-1341.72	 1732.62
     45.6770	 2345.00	 2349.93	-1381.18	 1733.34
     45.7030	 2383.00	 2349.44	-1342.69	 1734.06
     45.7290	 2398.00	 2348.98	-1327.23	 1734.78
     45.7550	 2385.00	 2348.57	-1339.82	 1735.50
     45.7810	 2380.00	 2348.20	-1344.45	 1736.22
     45.8070	 2304.00	 2347.87	-1420.12	 1736.94
     45.8330	 2359.00	 2347.58	-1364.83	 1737.66
     45.8590	 2362.00	 2347.33	-1361.58	 1738.38
     45.8850	 2338.00	 2347.11	-1385.36	 1739.09
     45.9110	 2385.00	 2346.92	-1338.17	 1739.81
     45.9370	 2410.00	 2346.76	-1313.01	 1740.52
     45.9630	 2430.00	 2346.64	-1292.89	 1741.23
     45.9890	 2421.00	 2346.55	-1301.80	 1741.94
     46.0150	 2418.00	 2346.48	-1304.73	 1742.65
     46.0410	 2424.00	 2346.44	-1298.69	 1743.36
     46.0670	 2334.00	 2346.43	-1388.68	 1744.07
     46.0930	 2360.00	 2346.43	-1362.68	 1744.77
     46.1190	 2377.00	 2346.46	-1345.71	 1745.47
     46.1450	 2290.00	 2346.51	-1432.76	 1746.18
     46.1710	 2353.00	 2346.58	-1369.83	 1746.88
     46.1970	 2415.00	 2346.67	-1307.92	 1747.57
     46.2230	 2438.00	 2346.77	-1285.02	 1748.27
     46.2490	 2333.00	 2346.88	-1390.13	 1748.96
     46.2750	 2294.00	 2347.01	-1429.26	 1749.66
     46.3010	 2365.00	 2347.14	-1358.39	 1750.35
     46.3270	 2398.00	 2347.28	-1325.53	 1751.04
     46.3530	 2417.00	 2347.43	-1306.68	 1751.72
     46.3790	 2371.00	 2347.59	-1352.84	 1752.41
     46.4050	 2346.00	 2347.75	-1378.00	 1753.09
     46.4310	 2350.00	 2347.90	-1374.15	 1753.77
     46.4570	 2388.00	 2348.06	-1336.31	 1754.45
     46.4830	 2419.00	 2348.22	-1305.47	 1755.12
     46.5090	 2436.00	 2348.37	-1288.62	 1755.79
     46.5350	 2340.00	 2348.51	-1384.76	 1756.46
     46.5610	 2370.00	 2348.65	-1354.90	 1757.13
     46.5870	 2436.00	 2348.78	-1289.03	 1757.79
     46.6130	 2264.00	 2348.90	-1461.15	 1758.46
     46.6390	 2322.00	 2349.01	-1403.26	 1759.11
     46.6650	 2273.00	 2349.11	-1452.36	 1759.77
     46.6910	 2362.00	 2349.19	-1363.44	 1760.42
     46.7170	 2306.00	 2349.26	-1419.51	 1761.07
     46.7430	 2395.00	 2349.31	-1330.56	 1761.72
     46.7690	 2337.00	 2349.35	-1388.60	 1762.37
     46.7950	 2402.00	 2349.36	-1323.61	 1763.01
     46.8210	 2362.00	 2349.36	-1363.61	 1763.65
     46.8470	 2383.00	 2349.34	-1342.59	 1764.28
     46.8730	 2397.00	 2349.31	-1328.56	 1764.91
     46.8990	 2443.00	 2349.25	-1282.50	 1765.54
     46.9250	 2372.00	 2349.17	-1353.42	 1766.17
     46.9510	 2308.00	 2349.08	-1417.33	 1766.79
     46.9770	 2332.00	 2348.96	-1393.21	 1767.41
     47.0030	 2343.00	 2348.83	-1382.08	 1768.02
     47.0290	 2348.00	 2348.68	-1376.93	 1768.63
     47.0550	 2414.00	 2348.50	-1310.75	 1769.24
     47.0810	 2330.00	 2348.32	-1394.57	 1769.84
     47.1070	 2397.00	 2348.11	-1327.36	 1770.44
     47.1330	 2439.00	 2347.89	-1285.14	 1771.04
     47.1590	 2308.00	 2347.65	-1415.90	 1771.63
     47.1850	 2349.00	 2347.40	-1374.65	 1772.22
     47.2110	 2255.00	 2347.14	-1468.39	 1772.81
     47.2370	 2333.00	 2346.86	-1390.11	 1773.39
     47.2630	 2284.00	 2346.57	-1438.82	 1773.96
     47.2890	 2360.00	 2346.27	-1362.52	 1774.54
     47.3150	 2356.00	 2345.96	-1366.21	 1775.11
     47.3410	 2355.00	 2345.65	-1366.90	 1775.67
     47.3670	 2381.00	 2345.32	-1340.57	 1776.23
     47.3930	 2323.00	 2344.99	-1398.24	 1776.79
     47.4190	 2366.00	 2344.68	-1354.93	 1777.34
     47.4450	 2339.00	 2344.34	-1381.59	 1777.89
     47.4710	 2335.00	 2344.00	-1385.25	 1778.43
     47.4970	 2414.00	 2343.65	-1305.90	 1778.97
     47.5230	 2392.00	 2343.30	-1327.55	 1779.50
     47.5490	 2401.00	 2342.95	-1318.20	 1780.03
     47.5750	 2385.00	 2342.61	-1333.86	 1780.56
     47.6010	 2348.00	 2342.27	-1370.52	 1781.08
     47.6270	 2270.00	 2341.93	-1448.18	 1781.59
     47.6530	 2282.00	 2341.59	-1435.84	 1782.11
     47.6790	 2278.00	 2341.25	-1439.50	 1782.61
     47.7050	 2297.00	 2340.91	-1420.16	 1783.11
     47.7310	 2363.00	 2340.58	-1353.83	 1783.61
     47.7570	 2390.00	 2340.26	-1326.51	 1784.10
     47.7830	 2426.00	 2339.94	-1290.19	 1784.59
     47.8090	 2358.00	 2339.62	-1357.87	 1785.07
     47.8350	 2351.00	 2339.32	-1364.57	 1785.55
     47.8610	 2363.00	 2339.02	-1352.27	 1786.02
     47.8870	 2351.00	 2338.72	-1363.97	 1786.49
     47.9130	 2340.00	 2338.44	-1374.69	 1786.95
     47.9390	 2372.00	 2338.16	-1342.41	 1787.41
     47.9650	 2392.00	 2337.89	-1322.14	 1787.86
     47.9910	 2345.00	 2337.63	-1368.88	 1788.31
     48.0170	 2354.00	 2337.38	-1359.63	 1788.75
     48.0430	 2374.00	 2337.13	-1339.38	 1789.19
     48.0690	 2325.00	 2336.90	-1388.15	 1789.62
     48.0950	 2338.00	 2336.67	-1374.92	 1790.04
     48.1210	 2319.00	 2336.45	-1393.70	 1790.46
     48.1470	 2304.00	 2336.24	-1408.49	 1790.88
     48.1730	 2324.00	 2336.04	-1388.29	 1791.29
     48.1990	 2323.00	 2335.85	-1389.10	 1791.69
     48.2250	 2368.00	 2335.67	-1343.92	 1792.09
     48.2510	 2366.00	 2335.49	-1345.74	 1792.48
     48.2770	 2361.00	 2335.33	-1350.58	 1792.87
     48.3030	 2383.00	 2335.17	-1328.42	 1793.25
     48.3290	 2384.00	 2335.02	-1327.27	 1793.62
     48.3550	 2399.00	 2334.88	-1312.13	 1793.99
     48.3810	 2345.00	 2334.75	-1366.00	 1794.36
     48.4070	 2304.00	 2334.63	-1406.88	 1794.72
     48.4330	 2314.00	 2334.51	-1396.76	 1795.07
     48.4590	 2320.00	 2334.40	-1390.65	 1795.42
     48.4850	 2433.00	 2334.31	-1277.56	 1795.76
     48.5110	 2469.00	 2334.21	-1241.46	 1796.09
     48.5370	 2323.00	 2334.13	-1387.38	 1796.42
     48.5630	 2353.00	 2334.05	-1357.30	 1796.75
     48.5890	 2400.00	 2333.99	-1310.24	 1797.06
     48.6150	 2345.00	 2333.92	-1365.17	 1797.37
     48.6410	 2400.00	 2333.87	-1310.12	 1797.68
     48.6670	 2421.00	 2333.82	-1289.07	 1797.98
     48.6930	 2384.00	 2333.78	-1326.03	 1798.27
     48.7190	 2401.00	 2333.75	-1309.00	 1798.56
     48.7450	 2407.00	 2333.72	-1302.97	 1798.84
     48.7710	 2430.00	 2333.70	-1279.95	 1799.11
     48.7970	 2431.00	 2333.69	-1278.94	 1799.38
     48.8230	 2377.00	 2333.68	-1332.93	 1799.64
     48.8490	 2340.00	 2333.68	-1369.93	 1799.90
     48.8750	 2320.00	 2333.68	-1389.93	 1800.15
     48.9010	 2402.00	 2333.69	-1307.94	 1800.39
     48.9270	 2368.00	 2333.71	-1341.96	 1800.63
     48.9530	 2386.00	 2333.73	-1323.98	 1800.86
     48.9790	 2422.00	 2333.76	-1288.01	 1801.08
     49.0050	 2460.00	 2333.79	-1250.04	 1801.30
     49.0310	 2336.00	 2333.83	-1374.08	 1801.51
     49.0570	 2386.00	 2333.88	-1324.13	 1801.72
     49.0830	 2408.00	 2333.93	-1302.18	 1801.92
     49.1090	 2467.00	 2333.98	-1243.23	 1802.11
     49.1350	 2361.00	 2334.04	-1349.29	 1802.29
     49.1610	 2414.00	 2334.11	-1296.36	 1802.47
     49.1870	 2486.00	 2334.18	-1224.43	 1802.64
     49.2130	 2374.00	 2334.25	-1336.50	 1802.81
     49.2390	 2381.00	 2334.33	-1329.58	 1802.97
     49.2650	 2404.00	 2334.42	-1306.67	 1803.12
     49.2910	 2360.00	 2334.51	-1350.76	 1803.27
     49.3170	 2325.00	 2334.60	-1385.85	 1803.41
     49.3430	 2404.00	 2334.70	-1306.95	 1803.54
     49.3690	 2404.00	 2334.81	-1307.06	 1803.67
     49.3950	 2383.00	 2334.92	-1328.17	 1803.78
     49.4210	 2496.00	 2335.03	-1215.28	 1803.90
     49.4470	 2507.00	 2335.15	-1204.40	 1804.00
     49.4730	 2463.00	 2335.27	-1248.52	 1804.10
     49.4990	 2477.00	 2335.40	-1234.65	 1804.19
     49.5250	 2480.00	 2335.53	-1231.78	 1804.28
     49.5510	 2525.00	 2335.67	-1186.92	 1804.36
     49.5770	 2470.00	 2335.81	-1242.06	 1804.43
     49.6030	 2402.00	 2335.96	-1310.21	 1804.50
     49.6290	 2457.00	 2336.11	-1255.36	 1804.55
     49.6550	 2334.00	 2336.27	-1378.52	 1804.60
     49.6810	 2404.00	 2336.43	-1308.68	 1804.65
     49.7070	 2443.00	 2336.60	-1269.85	 1804.69
     49.7330	 2437.00	 2336.77	-1276.02	 1804.72
     49.7590	 2496.00	 2336.95	-1217.20	 1804.74
     49.7850	 2478.00	 2337.13	-1235.38	 1804.76
     49.8110	 2540.00	 2337.32	-1173.57	 1804.77
     49.8370	 2365.00	 2337.51	-1348.76	 1804.77
     49.8630	 2433.00	 2337.71	-1280.96	 1804.77
     49.8890	 2498.00	 2337.91	-1216.16	 1804.76
     49.9150	 2495.00	 2338.12	-1219.37	 1804.74
     49.9410	 2509.00	 2338.33	-1205.58	 1804.72
     49.9670	 2498.00	 2338.55	-1216.80	 1804.69
     49.9930	 2495.00	 2338.78	-1220.03	 1804.65
     50.0190	 2543.00	 2339.01	-1172.26	 1804.60
     50.0450	 2569.00	 2339.25	-1146.50	 1804.55
     50.0710	 2518.00	 2339.50	-1197.75	 1804.49
     50.0970	 2461.00	 2339.75	-1255.00	 1804.42
     50.1230	 2450.00	 2340.01	-1266.26	 1804.35
     50.1490	 2460.00	 2340.28	-1256.53	 1804.27
     50.1750	 2482.00	 2340.55	-1234.80	 1804.18
     50.2010	 2433.00	 2340.83	-1284.08	 1804.09
     50.2270	 2394.00	 2341.11	-1323.36	 1803.99
     50.2530	 2426.00	 2341.41	-1291.66	 1803.88
     50.2790	 2481.00	 2341.71	-1236.96	 1803.76
     50.3050	 2452.00	 2342.02	-1266.27	 1803.64
     50.3310	 2422.00	 2342.34	-1296.59	 1803.51
     50.3570	 2443.00	 2342.67	-1275.92	 1803.38
     50.3830	 2492.00	 2343.00	-1227.25	 1803.23
     50.4090	 2500.00	 2343.35	-1219.60	 1803.08
     50.4350	 2425.00	 2343.70	-1294.95	 1802.93
     50.4610	 2417.00	 2344.06	-1303.31	 1802.76
     50.4870	 2428.00	 2344.44	-1292.69	 1802.59
     50.5130	 2462.00	 2344.82	-1259.07	 1802.41
     50.5390	 2406.00	 2345.21	-1315.46	 1802.23
     50.5650	 2429.00	 2345.61	-1292.86	 1802.03
     50.5910	 2488.00	 2346.03	-1234.28	 1801.83
     50.6170	 2464.00	 2346.45	-1258.70	 1801.63
     50.6430	 2430.00	 2346.89	-1293.14	 1801.42
     50.6690	 2388.00	 2347.34	-1335.59	 1801.20
     50.6950	 2354.00	 2347.80	-1370.05	 1800.97
     50.7210	 2387.00	 2348.27	-1337.52	 1800.73
     50.7470	 2478.00	 2348.76	-1247.01	 1800.49
     50.7730	 2477.00	 2349.25	-1248.50	 1800.24
     50.7990	 2440.00	 2349.77	-1286.02	 1799.99
     50.8250	 2478.00	 2350.29	-1248.54	 1799.73
     50.8510	 2486.00	 2350.83	-1241.08	 1799.46
     50.8770	 2444.00	 2351.39	-1283.64	 1799.18
     50.9030	 2370.00	 2351.96	-1358.21	 1798.90
     50.9290	 2336.00	 2352.54	-1392.79	 1798.61
     50.9550	 2400.00	 2353.14	-1329.39	 1798.31
     50.9810	 2390.00	 2353.76	-1340.01	 1798.01
     51.0070	 2340.00	 2354.39	-1390.64	 1797.70
     51.0330	 2371.00	 2355.04	-1360.29	 1797.38
     51.0590	 2389.00	 2355.71	-1342.96	 1797.06
     51.0850	 2403.00	 2356.40	-1329.65	 1796.73
     51.1110	 2398.00	 2357.10	-1335.35	 1796.39
     51.1370	 2395.00	 2357.83	-1339.08	 1796.04
     51.1630	 2438.00	 2358.57	-1296.82	 1795.69
     51.1890	 2418.00	 2359.33	-1317.58	 1795.33
     51.2150	 2349.00	 2360.11	-1387.36	 1794.97
     51.2410	 2394.00	 2360.92	-1343.17	 1794.60
     51.2670	 2430.00	 2361.74	-1307.99	 1794.22
     51.2930	 2416.00	 2362.59	-1322.84	 1793.83
     51.3190	 2381.00	 2363.45	-1358.70	 1793.44
     51.3450	 2297.00	 2364.34	-1443.59	 1793.04
     51.3710	 2348.00	 2365.26	-1393.51	 1792.64
     51.3970	 2379.00	 2366.19	-1363.44	 1792.22
     51.4230	 2376.00	 2367.15	-1367.40	 1791.80
     51.4490	 2285.00	 2368.14	-1459.39	 1791.38
     51.4750	 2408.00	 2369.15	-1337.40	 1790.95
     51.5010	 2342.00	 2370.18	-1404.43	 1790.51
     51.5270	 2330.00	 2371.24	-1417.49	 1790.06
     51.5530	 2370.00	 2372.32	-1378.57	 1789.61
     51.5790	 2373.00	 2373.43	-1376.68	 1789.15
     51.6050	 2334.00	 2374.56	-1416.81	 1788.68
     51.6310	 2352.00	 2375.72	-1399.97	 1788.21
     51.6570	 2313.00	 2376.91	-1440.16	 1787.73
     51.6830	 2300.00	 2378.12	-1454.37	 1787.25
     51.7090	 2361.00	 2379.36	-1394.61	 1786.76
     51.7350	 2379.00	 2380.63	-1377.88	 1786.26
     51.7610	 2421.00	 2381.92	-1337.17	 1785.75
     51.7870	 2333.00	 2383.24	-1426.49	 1785.24
     51.8130	 2271.00	 2384.59	-1489.84	 1784.73
     51.8390	 2353.00	 2385.96	-1409.21	 1784.20
     51.8650	 2350.00	 2387.35	-1413.60	 1783.67
     51.8910	 2361.00	 2388.78	-1404.03	 1783.14
     51.9170	 2315.00	 2390.22	-1451.47	 1782.59
     51.9430	 2411.00	 2391.69	-1356.94	 1782.05
     51.9690	 2318.00	 2393.19	-1451.44	 1781.49
     51.9950	 2347.00	 2394.71	-1423.96	 1780.93
     52.0210	 2324.00	 2396.24	-1448.49	 1780.36
     52.0470	 2307.00	 2397.80	-1467.05	 1779.79
     52.0730	 2444.00	 2399.38	-1331.63	 1779.21
     52.0990	 2345.00	 2400.98	-1432.23	 1778.62
     52.1250	 2433.00	 2402.59	-1345.84	 1778.03
     52.1510	 2340.00	 2404.22	-1440.47	 1777.43
     52.1770	 2386.00	 2405.86	-1396.11	 1776.83
     52.2030	 2470.00	 2407.52	-1313.77	 1776.22
     52.2290	 2389.00	 2409.18	-1396.43	 1775.60
     52.2550	 2290.00	 2410.85	-1497.10	 1774.98
     52.2810	 2331.00	 2412.52	-1457.77	 1774.35
     52.3070	 2332.00	 2414.20	-1458.45	 1773.72
     52.3330	 2349.00	 2415.87	-1443.12	 1773.08
     52.3590	 2373.00	 2417.55	-1420.80	 1772.43
     52.3850	 2316.00	 2419.21	-1479.46	 1771.78
     52.4110	 2392.00	 2420.87	-1405.12	 1771.12
     52.4370	 2374.00	 2422.51	-1424.76	 1770.46
     52.4630	 2328.00	 2424.14	-1472.39	 1769.79
     52.4890	 2342.00	 2425.74	-1459.99	 1769.12
     52.5150	 2363.00	 2427.32	-1440.57	 1768.44
     52.5410	 2394.00	 2428.88	-1411.13	 1767.75
     52.5670	 2229.00	 2430.40	-1577.65	 1767.06
     52.5930	 2271.00	 2431.88	-1537.13	 1766.36
     52.6190	 2310.00	 2433.33	-1499.58	 1765.66
     52.6450	 2301.00	 2434.73	-1509.98	 1764.95
     52.6710	 2295.00	 2436.08	-1517.33	 1764.24
     52.6970	 2386.00	 2437.38	-1427.63	 1763.52
     52.7230	 2354.00	 2438.62	-1460.87	 1762.80
     52.7490	 2349.00	 2439.80	-1467.05	 1762.07
     52.7750	 2337.00	 2440.92	-1480.17	 1761.33
     52.8010	 2298.00	 2441.97	-1520.22	 1760.59
     52.8270	 2320.00	 2442.94	-1499.19	 1759.84
     52.8530	 2315.00	 2443.84	-1505.09	 1759.09
     52.8790	 2336.00	 2444.67	-1484.92	 1758.34
     52.9050	 2380.00	 2445.41	-1441.66	 1757.58
     52.9310	 2282.00	 2446.06	-1540.31	 1756.81
     52.9570	 2273.00	 2446.63	-1549.88	 1756.04
     52.9830	 2231.00	 2447.12	-1592.37	 1755.26
     53.0090	 2237.00	 2447.51	-1586.76	 1754.48
     53.0350	 2317.00	 2447.81	-1507.06	 1753.69
     53.0610	 2336.00	 2448.01	-1488.26	 1752.90
     53.0870	 2311.00	 2448.12	-1513.38	 1752.11
     53.1130	 2298.00	 2448.15	-1526.40	 1751.31
     53.1390	 2301.00	 2448.07	-1523.32	 1750.50
     53.1650	 2246.00	 2447.91	-1578.16	 1749.69
     53.1910	 2261.00	 2447.65	-1562.90	 1748.87
     53.2170	 2314.00	 2447.30	-1509.55	 1748.05
     53.2430	 2362.00	 2446.87	-1461.12	 1747.23
     53.2690	 2334.00	 2446.35	-1488.60	 1746.40
     53.2950	 2271.00	 2445.74	-1550.99	 1745.56
     53.3210	 2216.00	 2445.06	-1605.31	 1744.73
     53.3470	 2231.00	 2444.30	-1589.55	 1743.88
     53.3730	 2283.00	 2443.46	-1536.71	 1743.04
     53.3990	 2248.00	 2442.56	-1570.81	 1742.18
     53.4250	 2210.00	 2441.59	-1607.84	 1741.33
     53.4510	 2259.00	 2440.56	-1557.81	 1740.47
     53.4770	 2260.00	 2439.48	-1555.73	 1739.60
     53.5030	 2275.00	 2438.34	-1539.59	 1738.73
     53.5290	 2308.00	 2437.15	-1505.40	 1737.86
     53.5550	 2269.00	 2435.92	-1543.17	 1736.98
     53.5810	 2255.00	 2434.66	-1555.91	 1736.10
     53.6070	 2249.00	 2433.36	-1560.61	 1735.21
     53.6330	 2257.00	 2432.03	-1551.28	 1734.32
     53.6590	 2259.00	 2430.68	-1547.93	 1733.43
     53.6850	 2224.00	 2429.32	-1581.57	 1732.53
     53.7110	 2250.00	 2427.94	-1554.19	 1731.63
     53.7370	 2295.00	 2426.55	-1507.80	 1730.72
     53.7630	 2287.00	 2425.16	-1514.41	 1729.82
     53.7890	 2277.00	 2423.77	-1523.02	 1728.90
     53.8150	 2257.00	 2422.38	-1541.63	 1727.99
     53.8410	 2270.00	 2421.01	-1527.26	 1727.06
     53.8670	 2291.00	 2419.65	-1504.90	 1726.14
     53.8930	 2221.00	 2418.31	-1573.56	 1725.21
     53.9190	 2242.00	 2416.99	-1551.24	 1724.28
     53.9450	 2321.00	 2415.69	-1470.94	 1723.35
     53.9710	 2323.00	 2414.43	-1467.68	 1722.41
     53.9970	 2290.00	 2413.20	-1499.45	 1721.47
     54.0230	 2298.00	 2412.00	-1490.25	 1720.52
     54.0490	 2296.00	 2410.84	-1491.09	 1719.57
     54.0750	 2300.00	 2409.73	-1485.98	 1718.62
     54.1010	 2214.00	 2408.66	-1570.91	 1717.67
     54.1270	 2229.00	 2407.64	-1554.89	 1716.71
     54.1530	 2273.00	 2406.67	-1509.92	 1715.75
     54.1790	 2324.00	 2405.75	-1458.00	 1714.78
     54.2050	 2289.00	 2404.89	-1492.14	 1713.82
     54.2310	 2296.00	 2404.08	-1484.33	 1712.85
     54.2570	 2335.00	 2403.34	-1444.59	 1711.87
     54.2830	 2341.00	 2402.65	-1437.90	 1710.90
     54.3090	 2291.00	 2402.03	-1487.28	 1709.92
     54.3350	 2310.00	 2401.48	-1467.73	 1708.94
     54.3610	 2306.00	 2400.99	-1471.24	 1707.95
     54.3870	 2367.00	 2400.57	-1409.82	 1706.96
     54.4130	 2369.00	 2400.22	-1407.47	 1705.97
     54.4390	 2357.00	 2399.94	-1419.19	 1704.98
     54.4650	 2299.00	 2399.73	-1476.98	 1703.99
     54.4910	 2286.00	 2399.60	-1489.85	 1702.99
     54.5170	 2391.00	 2399.54	-1384.79	 1701.99
     54.5430	 2413.00	 2399.56	-1362.81	 1700.99
     54.5690	 2318.00	 2399.66	-1457.91	 1699.98
     54.5950	 2285.00	 2399.83	-1491.08	 1698.98
     54.6210	 2333.00	 2400.09	-1443.34	 1697.97
     54.6470	 2287.00	 2400.43	-1489.68	 1696.96
     54.6730	 2398.00	 2400.85	-1379.10	 1695.94
     54.6990	 2345.00	 2401.35	-1432.60	 1694.93
     54.7250	 2428.00	 2401.94	-1350.19	 1693.91
     54.7510	 2363.00	 2402.61	-1415.86	 1692.89
     54.7770	 2356.00	 2403.36	-1423.61	 1691.87
     54.8030	 2316.00	 2404.21	-1464.46	 1690.85
     54.8290	 2350.00	 2405.14	-1431.39	 1689.82
     54.8550	 2337.00	 2406.15	-1445.40	 1688.79
     54.8810	 2329.00	 2407.26	-1454.51	 1687.76
     54.9070	 2439.00	 2408.45	-1345.70	 1686.73
     54.9330	 2373.00	 2409.74	-1412.99	 1685.70
     54.9590	 2385.00	 2411.11	-1402.36	 1684.67
     54.9850	 2418.00	 2412.58	-1370.83	 1683.63
     55.0110	 2387.00	 2414.13	-1403.38	 1682.60
     55.0370	 2461.00	 2415.78	-1331.03	 1681.56
     55.0630	 2421.00	 2417.52	-1372.77	 1680.52
     55.0890	 2356.00	 2419.34	-1439.59	 1679.48
     55.1150	 2341.00	 2421.26	-1456.51	 1678.44
     55.1410	 2384.00	 2423.28	-1415.53	 1677.39
     55.1670	 2396.00	 2425.38	-1405.63	 1676.35
     55.1930	 2444.00	 2427.57	-1359.82	 1675.30
     55.2190	 2440.00	 2429.86	-1366.11	 1674.26
     55.2450	 2377.00	 2432.23	-1431.48	 1673.21
     55.2710	 2437.00	 2434.69	-1373.94	 1672.16
     55.2970	 2398.00	 2437.24	-1415.49	 1671.11
     55.3230	 2507.00	 2439.88	-1309.13	 1670.06
     55.3490	 2476.00	 2442.60	-1342.85	 1669.01
     55.3750	 2483.00	 2445.41	-1338.66	 1667.96
     55.4010	 2455.00	 2448.30	-1369.55	 1666.90
     55.4270	 2429.00	 2451.27	-1398.52	 1665.85
     55.4530	 2381.00	 2454.31	-1449.56	 1664.80
     55.4790	 2454.00	 2457.44	-1379.69	 1663.74
     55.5050	 2473.00	 2460.63	-1363.88	 1662.69
     55.5310	 2412.00	 2463.89	-1428.14	 1661.63
     55.5570	 2442.00	 2467.22	-1401.47	 1660.58
     55.5830	 2525.00	 2470.61	-1321.86	 1659.52
     55.6090	 2508.00	 2474.06	-1342.31	 1658.46
     55.6350	 2442.00	 2477.56	-1411.81	 1657.41
     55.6610	 2459.00	 2481.11	-1398.36	 1656.35
     55.6870	 2475.00	 2484.70	-1385.95	 1655.29
     55.7130	 2496.00	 2488.33	-1368.58	 1654.24
     55.7390	 2516.00	 2491.98	-1352.23	 1653.18
     55.7650	 2534.00	 2495.66	-1337.91	 1652.12
     55.7910	 2502.00	 2499.36	-1373.61	 1651.07
     55.8170	 2453.00	 2503.07	-1426.32	 1650.01
     55.8430	 2453.00	 2506.77	-1430.02	 1648.95
     55.8690	 2532.00	 2510.48	-1354.73	 1647.90
     55.8950	 2546.00	 2514.16	-1344.41	 1646.84
     55.9210	 2510.00	 2517.82	-1384.07	 1645.78
     55.9470	 2490.00	 2521.44	-1407.69	 1644.73
     55.9730	 2545.00	 2525.02	-1356.27	 1643.68
     55.9990	 2526.00	 2528.54	-1378.79	 1642.62
     56.0250	 2520.00	 2531.99	-1388.24	 1641.57
     56.0510	 2561.00	 2535.37	-1350.62	 1640.51
     56.0770	 2567.00	 2538.66	-1347.91	 1639.46
     56.1030	 2639.00	 2541.85	-1279.10	 1638.41
     56.1290	 2612.00	 2544.92	-1309.17	 1637.36
     56.1550	 2532.00	 2547.88	-1392.13	 1636.31
     56.1810	 2549.00	 2550.69	-1377.94	 1635.26
     56.2070	 2591.00	 2553.37	-1338.62	 1634.21
     56.2330	 2593.00	 2555.88	-1339.13	 1633.16
     56.2590	 2533.00	 2558.22	-1401.47	 1632.12
     56.2850	 2584.00	 2560.39	-1352.64	 1631.07
     56.3110	 2689.00	 2562.36	-1249.61	 1630.03
     56.3370	 2702.00	 2564.13	-1238.38	 1628.98
     56.3630	 2678.00	 2565.69	-1263.94	 1627.94
     56.3890	 2673.00	 2567.02	-1270.27	 1626.90
     56.4150	 2675.00	 2568.13	-1269.38	 1625.86
     56.4410	 2651.00	 2569.00	-1294.25	 1624.82
     56.4670	 2661.00	 2569.62	-1284.88	 1623.79
     56.4930	 2624.00	 2570.00	-1322.25	 1622.75
     56.5190	 2557.00	 2570.11	-1389.36	 1621.72
     56.5450	 2550.00	 2569.97	-1396.22	 1620.69
     56.5710	 2588.00	 2569.56	-1357.81	 1619.66
     56.5970	 2627.00	 2568.88	-1318.13	 1618.63
     56.6230	 2693.00	 2567.93	-1251.18	 1617.60
     56.6490	 2633.00	 2566.71	-1309.96	 1616.58
     56.6750	 2618.00	 2565.22	-1323.47	 1615.55
     56.7010	 2653.00	 2563.46	-1286.71	 1614.53
     56.7270	 2643.00	 2561.44	-1294.69	 1613.51
     56.7530	 2673.00	 2559.16	-1262.41	 1612.50
     56.7790	 2665.00	 2556.62	-1267.87	 1611.48
     56.8050	 2644.00	 2553.82	-1286.07	 1610.47
     56.8310	 2602.00	 2550.79	-1325.04	 1609.46
     56.8570	 2594.00	 2547.51	-1329.76	 1608.45
     56.8830	 2659.00	 2544.00	-1261.25	 1607.44
     56.9090	 2754.00	 2540.27	-1162.52	 1606.43
     56.9350	 2690.00	 2536.33	-1222.58	 1605.43
     56.9610	 2625.00	 2532.18	-1283.43	 1604.43
     56.9870	 2607.00	 2527.85	-1297.10	 1603.43
     57.0130	 2576.00	 2523.33	-1323.58	 1602.44
     57.0390	 2668.00	 2518.64	-1226.89	 1601.45
     57.0650	 2671.00	 2513.79	-1219.04	 1600.46
     57.0910	 2632.00	 2508.79	-1253.04	 1599.47
     57.1170	 2673.00	 2503.66	-1206.91	 1598.49
     57.1430	 2640.00	 2498.40	-1234.65	 1597.50
     57.1690	 2708.00	 2493.02	-1161.27	 1596.52
     57.1950	 2612.00	 2487.55	-1251.80	 1595.55
     57.2210	 2651.00	 2481.99	-1207.24	 1594.57
     57.2470	 2706.00	 2476.34	-1146.59	 1593.60
     57.2730	 2727.00	 2470.63	-1119.88	 1592.63
     57.2990	 2663.00	 2464.86	-1178.11	 1591.67
     57.3250	 2657.00	 2459.05	-1178.30	 1590.71
     57.3510	 2625.00	 2453.19	-1204.44	 1589.75
     57.3770	 2583.00	 2447.31	-1240.56	 1588.79
     57.4030	 2603.00	 2441.41	-1214.66	 1587.84
     57.4290	 2626.00	 2435.50	-1185.75	 1586.89
     57.4550	 2557.00	 2429.59	-1248.84	 1585.94
     57.4810	 2672.00	 2423.69	-1127.94	 1585.00
     57.5070	 2512.00	 2417.80	-1282.05	 1584.06
     57.5330	 2541.00	 2411.93	-1247.18	 1583.13
     57.5590	 2593.00	 2406.09	-1189.34	 1582.19
     57.5850	 2625.00	 2400.29	-1151.54	 1581.26
     57.6110	 2579.00	 2394.52	-1191.77	 1580.34
     57.6370	 2585.00	 2388.80	-1180.05	 1579.42
     57.6630	 2544.00	 2383.13	-1215.38	 1578.50
     57.6890	 2645.00	 2377.51	-1108.76	 1577.58
     57.7150	 2554.00	 2371.96	-1194.21	 1576.67
     57.7410	 2639.00	 2366.46	-1103.71	 1575.76
     57.7670	 2568.00	 2361.04	-1169.29	 1574.86
     57.7930	 2661.00	 2355.68	-1070.93	 1573.96
     57.8190	 2616.00	 2350.39	-1110.64	 1573.06
     57.8450	 2652.00	 2345.18	-1069.43	 1572.17
     57.8710	 2487.00	 2340.05	-1229.30	 1571.28
     57.8970	 2489.00	 2334.99	-1222.24	 1570.40
     57.9230	 2509.00	 2330.02	-1197.27	 1569.51
     57.9490	 2534.00	 2325.12	-1167.37	 1568.64
     57.9750	 2511.00	 2320.31	-1185.56	 1567.77
     58.0010	 2477.00	 2315.59	-1214.84	 1566.90
     58.0270	 2485.00	 2310.95	-1202.20	 1566.03
     58.0530	 2510.00	 2306.39	-1172.64	 1565.17
     58.0790	 2419.00	 2301.92	-1259.17	 1564.32
     58.1050	 2528.00	 2297.54	-1145.79	 1563.46
     58.1310	 2548.00	 2293.25	-1121.50	 1562.62
     58.1570	 2500.00	 2289.04	-1165.29	 1561.77
     58.1830	 2438.00	 2284.92	-1223.17	 1560.93
     58.2090	 2412.00	 2280.89	-1245.14	 1560.10
     58.2350	 2433.00	 2276.94	-1220.19	 1559.27
     58.2610	 2431.00	 2273.08	-1218.33	 1558.44
     58.2870	 2453.00	 2269.31	-1192.56	 1557.62
     58.3130	 2408.00	 2265.62	-1233.87	 1556.81
     58.3390	 2464.00	 2262.02	-1174.27	 1556.00
     58.3650	 2414.00	 2258.50	-1220.75	 1555.19
     58.3910	 2395.00	 2255.06	-1236.31	 1554.39
     58.4170	 2427.00	 2251.71	-1200.96	 1553.59
     58.4430	 2409.00	 2248.45	-1215.70	 1552.79
     58.4690	 2403.00	 2245.26	-1218.51	 1552.01
     58.4950	 2349.00	 2242.16	-1269.41	 1551.22
     58.5210	 2298.00	 2239.14	-1317.39	 1550.44
     58.5470	 2349.00	 2236.19	-1263.44	 1549.67
     58.5730	 2402.00	 2233.33	-1207.58	 1548.90
     58.5990	 2395.00	 2230.55	-1211.80	 1548.14
     58.6250	 2362.00	 2227.84	-1242.09	 1547.38
     58.6510	 2293.00	 2225.21	-1308.46	 1546.62
     58.6770	 2298.00	 2222.66	-1300.91	 1545.87
     58.7030	 2360.00	 2220.19	-1236.44	 1545.13
     58.7290	 2354.00	 2217.79	-1240.04	 1544.39
     58.7550	 2324.00	 2215.46	-1267.71	 1543.65
     58.7810	 2317.00	 2213.22	-1272.47	 1542.93
     58.8070	 2352.00	 2211.04	-1235.29	 1542.20
     58.8330	 2337.00	 2208.94	-1248.19	 1541.48
     58.8590	 2289.00	 2206.91	-1294.16	 1540.77
     58.8850	 2271.00	 2204.95	-1310.20	 1540.06
     58.9110	 2292.00	 2203.06	-1287.31	 1539.36
     58.9370	 2331.00	 2201.24	-1246.49	 1538.66
     58.9630	 2326.00	 2199.49	-1249.74	 1537.97
     58.9890	 2346.00	 2197.82	-1228.07	 1537.28
     59.0150	 2288.00	 2196.21	-1284.46	 1536.60
     59.0410	 2300.00	 2194.67	-1270.92	 1535.92
     59.0670	 2283.00	 2193.20	-1286.45	 1535.25
     59.0930	 2277.00	 2191.79	-1291.04	 1534.58
     59.1190	 2249.00	 2190.46	-1317.71	 1533.92
     59.1450	 2235.00	 2189.19	-1330.44	 1533.27
     59.1710	 2137.00	 2187.99	-1427.24	 1532.62
     59.1970	 2176.00	 2186.86	-1387.11	 1531.98
     59.2230	 2277.00	 2185.79	-1285.04	 1531.34
     59.2490	 2281.00	 2184.79	-1280.04	 1530.71
     59.2750	 2222.00	 2183.86	-1338.11	 1530.08
     59.3010	 2194.00	 2183.00	-1365.25	 1529.46
     59.3270	 2181.00	 2182.20	-1377.45	 1528.84
     59.3530	 2253.00	 2181.47	-1304.72	 1528.23
     59.3790	 2324.00	 2180.80	-1233.05	 1527.63
     59.4050	 2175.00	 2180.20	-1381.45	 1527.03
     59.4310	 2241.00	 2179.67	-1314.92	 1526.43
     59.4570	 2188.00	 2179.21	-1367.46	 1525.85
     59.4830	 2213.00	 2178.81	-1342.06	 1525.27
     59.5090	 2190.00	 2178.48	-1364.73	 1524.69
     59.5350	 2175.00	 2178.22	-1379.47	 1524.12
     59.5610	 2165.00	 2178.03	-1389.28	 1523.55
     59.5870	 2242.00	 2177.90	-1312.15	 1523.00
     59.6130	 2224.00	 2177.84	-1330.09	 1522.44
     59.6390	 2172.00	 2177.86	-1382.11	 1521.90
     59.6650	 2215.00	 2177.94	-1339.19	 1521.36
     59.6910	 2242.00	 2178.09	-1312.34	 1520.82
     59.7170	 2200.00	 2178.32	-1354.57	 1520.29
     59.7430	 2169.00	 2178.61	-1385.86	 1519.77
     59.7690	 2178.00	 2178.98	-1377.23	 1519.25
     59.7950	 2153.00	 2179.42	-1402.67	 1518.74
     59.8210	 2142.00	 2179.93	-1414.18	 1518.23
     59.8470	 2135.00	 2180.52	-1421.77	 1517.73
     59.8730	 2097.00	 2181.18	-1460.43	 1517.24
     59.8990	 2144.00	 2181.92	-1414.17	 1516.75
     59.9250	 2126.00	 2182.73	-1432.98	 1516.27
     59.9510	 2186.00	 2183.62	-1373.87	 1515.79
     59.9770	 2117.00	 2184.59	-1443.84	 1515.32
     60.0030	 2189.00	 2185.64	-1372.89	 1514.86
     60.0290	 2247.00	 2186.77	-1316.02	 1514.40
     60.0550	 2223.00	 2187.98	-1341.23	 1513.95
     60.0810	 2156.00	 2189.27	-1409.52	 1513.51
     60.1070	 2148.00	 2190.65	-1418.90	 1513.07
     60.1330	 2158.00	 2192.11	-1410.36	 1512.63
     60.1590	 2129.00	 2193.66	-1440.91	 1512.20
     60.1850	 2118.00	 2195.30	-1453.55	 1511.78
     60.2110	 2172.00	 2197.03	-1401.28	 1511.37
     60.2370	 2143.00	 2198.84	-1432.09	 1510.96
     60.2630	 2177.00	 2200.75	-1400.00	 1510.55
     60.2890	 2204.00	 2202.76	-1375.01	 1510.16
     60.3150	 2180.00	 2204.86	-1401.11	 1509.77
     60.3410	 2173.00	 2207.05	-1410.30	 1509.38
     60.3670	 2128.00	 2209.35	-1457.60	 1509.00
     60.3930	 2118.00	 2211.74	-1469.99	 1508.63
     60.4190	 2174.00	 2214.24	-1416.49	 1508.26
     60.4450	 2145.00	 2216.84	-1448.09	 1507.90
     60.4710	 2112.00	 2219.55	-1483.80	 1507.55
     60.4970	 2185.00	 2222.37	-1413.62	 1507.20
     60.5230	 2174.00	 2225.30	-1427.55	 1506.86
     60.5490	 2154.00	 2228.34	-1450.59	 1506.52
     60.5750	 2152.00	 2231.49	-1455.74	 1506.19
     60.6010	 2141.00	 2234.77	-1470.02	 1505.87
     60.6270	 2153.00	 2238.16	-1461.41	 1505.55
     60.6530	 2130.00	 2241.67	-1487.92	 1505.24
     60.6790	 2134.00	 2245.31	-1487.56	 1504.93
     60.7050	 2151.00	 2249.08	-1474.33	 1504.63
     60.7310	 2126.00	 2252.97	-1503.22	 1504.34
     60.7570	 2181.00	 2257.00	-1452.25	 1504.05
     60.7830	 2192.00	 2261.17	-1445.42	 1503.77
     60.8090	 2171.00	 2265.47	-1470.72	 1503.49
     60.8350	 2164.00	 2269.92	-1482.17	 1503.22
     60.8610	 2164.00	 2274.51	-1486.76	 1502.96
     60.8870	 2148.00	 2279.25	-1507.50	 1502.70
     60.9130	 2152.00	 2284.15	-1508.40	 1502.45
     60.9390	 2188.00	 2289.20	-1477.45	 1502.21
     60.9650	 2153.00	 2294.41	-1517.66	 1501.97
     60.9910	 2151.00	 2299.79	-1525.04	 1501.73
     61.0170	 2114.00	 2305.34	-1567.59	 1501.51
     61.0430	 2095.00	 2311.06	-1592.31	 1501.29
     61.0690	 2143.00	 2316.97	-1550.22	 1501.07
     61.0950	 2168.00	 2323.06	-1531.31	 1500.86
     61.1210	 2169.00	 2329.35	-1536.60	 1500.66
     61.1470	 2201.00	 2335.83	-1511.08	 1500.46
     61.1730	 2193.00	 2342.53	-1525.78	 1500.27
     61.1990	 2150.00	 2349.44	-1575.69	 1500.09
     61.2250	 2165.00	 2356.58	-1567.83	 1499.91
     61.2510	 2128.00	 2363.95	-1612.20	 1499.73
     61.2770	 2146.00	 2371.57	-1601.82	 1499.56
     61.3030	 2197.00	 2379.45	-1558.70	 1499.40
     61.3290	 2205.00	 2387.61	-1558.86	 1499.25
     61.3550	 2170.00	 2396.05	-1602.30	 1499.10
     61.3810	 2164.00	 2404.80	-1617.05	 1498.95
     61.4070	 2234.00	 2413.88	-1556.13	 1498.81
     61.4330	 2295.00	 2423.31	-1504.56	 1498.68
     61.4590	 2315.00	 2433.11	-1494.36	 1498.56
     61.4850	 2258.00	 2443.32	-1561.57	 1498.43
     61.5110	 2305.00	 2453.96	-1525.21	 1498.32
     61.5370	 2394.00	 2465.08	-1447.33	 1498.21
     61.5630	 2386.00	 2476.70	-1466.95	 1498.11
     61.5890	 2406.00	 2488.88	-1459.13	 1498.01
     61.6150	 2460.00	 2501.68	-1417.93	 1497.92
     61.6410	 2490.00	 2515.14	-1401.39	 1497.83
     61.6670	 2505.00	 2529.33	-1400.58	 1497.75
     61.6930	 2578.00	 2544.32	-1342.57	 1497.67
     61.7190	 2629.00	 2560.21	-1307.46	 1497.60
     61.7450	 2617.00	 2577.07	-1336.32	 1497.54
     61.7710	 2631.00	 2595.01	-1340.26	 1497.48
     61.7970	 2715.00	 2614.14	-1275.39	 1497.43
     61.8230	 2773.00	 2634.58	-1237.83	 1497.38
     61.8490	 2835.00	 2656.46	-1197.71	 1497.34
     61.8750	 2878.00	 2679.92	-1178.17	 1497.30
     61.9010	 2954.00	 2705.12	-1127.37	 1497.27
     61.9270	 2967.00	 2732.20	-1141.45	 1497.24
     61.9530	 2922.00	 2761.32	-1215.57	 1497.22
     61.9790	 3024.00	 2792.61	-1144.86	 1497.21
     62.0050	 3067.00	 2826.22	-1135.47	 1497.20
     62.0310	 3188.00	 2862.24	-1050.49	 1497.19
     62.0570	 3209.00	 2900.70	-1067.95	 1497.19
     62.0830	 3202.00	 2941.57	-1115.82	 1497.20
     62.1090	 3275.00	 2984.72	-1085.97	 1497.21
     62.1350	 3311.00	 3029.85	-1095.10	 1497.23
     62.1610	 3414.00	 3076.51	-1038.76	 1497.25
     62.1870	 3408.00	 3124.02	-1092.27	 1497.28
     62.2130	 3491.00	 3171.47	-1056.72	 1497.31
     62.2390	 3614.00	 3217.74	 -979.99	 1497.34
     62.2650	 3585.00	 3261.47	-1052.72	 1497.39
     62.2910	 3542.00	 3301.22	-1135.47	 1497.43
     62.3170	 3528.00	 3335.51	-1183.76	 1497.49
     62.3430	 3635.00	 3362.99	-1104.24	 1497.54
     62.3690	 3638.00	 3382.52	-1120.77	 1497.60
     62.3950	 3628.00	 3393.44	-1141.69	 1497.67
     62.4210	 3615.00	 3395.39	-1156.64	 1497.74
     62.4470	 3656.00	 3388.41	-1108.66	 1497.82
     62.4730	 3608.00	 3372.92	-1141.17	 1497.90
     62.4990	 3543.00	 3349.62	-1182.87	 1497.99
     62.5250	 3485.00	 3319.37	-1210.62	 1498.08
     62.5510	 3515.00	 3283.16	-1144.41	 1498.17
     62.5770	 3455.00	 3242.10	-1163.35	 1498.27
     62.6030	 3441.00	 3197.31	-1132.56	 1498.38
     62.6290	 3248.00	 3149.93	-1278.18	 1498.49
     62.6550	 3177.00	 3101.05	-1300.30	 1498.60
     62.6810	 3172.00	 3051.68	-1255.93	 1498.72
     62.7070	 3129.00	 3002.68	-1249.93	 1498.84
     62.7330	 2992.00	 2954.76	-1339.01	 1498.97
     62.7590	 3003.00	 2908.47	-1281.72	 1499.10
     62.7850	 2998.00	 2864.20	-1242.45	 1499.23
     62.8110	 2856.00	 2822.18	-1342.43	 1499.37
     62.8370	 2803.00	 2782.55	-1355.80	 1499.52
     62.8630	 2722.00	 2745.34	-1399.59	 1499.67
     62.8890	 2695.00	 2710.53	-1391.78	 1499.82
     62.9150	 2654.00	 2678.02	-1400.27	 1499.98
     62.9410	 2638.00	 2647.70	-1385.95	 1500.14
     62.9670	 2578.00	 2619.46	-1417.71	 1500.30
     62.9930	 2412.00	 2593.14	-1557.39	 1500.47
     63.0190	 2438.00	 2568.60	-1506.85	 1500.64
     63.0450	 2445.00	 2545.71	-1476.96	 1500.82
     63.0710	 2387.00	 2524.32	-1513.57	 1501.00
     63.0970	 2408.00	 2504.33	-1472.58	 1501.19
     63.1230	 2397.00	 2485.60	-1464.85	 1501.37
     63.1490	 2335.00	 2468.03	-1509.28	 1501.57
     63.1750	 2295.00	 2451.52	-1532.77	 1501.76
     63.2010	 2232.00	 2435.99	-1580.24	 1501.96
     63.2270	 2309.00	 2421.34	-1488.59	 1502.17
     63.2530	 2271.00	 2407.51	-1512.76	 1502.37
     63.2790	 2277.00	 2394.43	-1493.68	 1502.58
     63.3050	 2298.00	 2382.04	-1460.29	 1502.80
     63.3310	 2301.00	 2370.28	-1445.53	 1503.01
     63.3570	 2315.00	 2359.11	-1420.36	 1503.23
     63.3830	 2273.00	 2348.48	-1451.73	 1503.46
     63.4090	 2264.00	 2338.35	-1450.60	 1503.69
     63.4350	 2231.00	 2328.69	-1473.94	 1503.92
     63.4610	 2275.00	 2319.45	-1420.70	 1504.15
     63.4870	 2276.00	 2310.63	-1410.88	 1504.39
     63.5130	 2237.00	 2302.18	-1441.43	 1504.63
     63.5390	 2269.00	 2294.08	-1401.33	 1504.87
     63.5650	 2259.00	 2286.31	-1403.56	 1505.12
     63.5910	 2256.00	 2278.86	-1399.11	 1505.36
     63.6170	 2291.00	 2271.69	-1356.94	 1505.62
     63.6430	 2293.00	 2264.80	-1348.05	 1505.87
     63.6690	 2222.00	 2258.17	-1412.42	 1506.13
     63.6950	 2215.00	 2251.79	-1413.04	 1506.39
     63.7210	 2264.00	 2245.64	-1357.89	 1506.65
     63.7470	 2235.00	 2239.72	-1380.97	 1506.92
     63.7730	 2165.00	 2234.00	-1445.25	 1507.19
     63.7990	 2105.00	 2228.49	-1499.74	 1507.46
     63.8250	 2136.00	 2223.16	-1463.41	 1507.73
     63.8510	 2210.00	 2218.02	-1384.27	 1508.01
     63.8770	 2201.00	 2213.05	-1388.30	 1508.28
     63.9030	 2164.00	 2208.25	-1420.50	 1508.57
     63.9290	 2131.00	 2203.61	-1448.86	 1508.85
     63.9550	 2125.00	 2199.12	-1450.37	 1509.13
     63.9810	 2145.00	 2194.77	-1426.02	 1509.42
     64.0070	 2184.00	 2190.57	-1382.82	 1509.71
     64.0330	 2228.00	 2186.50	-1334.75	 1510.00
     64.0590	 2218.00	 2182.56	-1340.81	 1510.29
     64.0850	 2228.00	 2178.75	-1327.00	 1510.59
     64.1110	 2252.00	 2175.05	-1299.30	 1510.89
     64.1370	 2165.00	 2171.47	-1382.72	 1511.19
     64.1630	 2115.00	 2168.00	-1429.25	 1511.49
     64.1890	 2176.00	 2164.64	-1364.89	 1511.79
     64.2150	 2184.00	 2161.38	-1353.63	 1512.09
     64.2410	 2190.00	 2158.22	-1344.47	 1512.40
     64.2670	 2159.00	 2155.15	-1372.40	 1512.71
     64.2930	 2147.00	 2152.18	-1381.43	 1513.02
     64.3190	 2181.00	 2149.30	-1344.55	 1513.33
     64.3450	 2131.00	 2146.50	-1391.75	 1513.64
     64.3710	 2142.00	 2143.79	-1378.04	 1513.95
     64.3970	 2131.00	 2141.16	-1386.41	 1514.27
     64.4230	 2137.00	 2138.60	-1377.85	 1514.58
     64.4490	 2152.00	 2136.12	-1360.37	 1514.90
     64.4750	 2116.00	 2133.72	-1393.97	 1515.22
     64.5010	 2097.00	 2131.38	-1410.63	 1515.54
     64.5270	 2160.00	 2129.11	-1345.36	 1515.86
     64.5530	 2178.00	 2126.91	-1325.16	 1516.18
     64.5790	 2139.00	 2124.77	-1362.02	 1516.50
     64.6050	 2180.00	 2122.70	-1318.95	 1516.83
     64.6310	 2183.00	 2120.68	-1313.93	 1517.15
     64.6570	 2137.00	 2118.72	-1357.97	 1517.48
     64.6830	 2130.00	 2116.82	-1363.07	 1517.80
     64.7090	 2088.00	 2114.97	-1403.22	 1518.13
     64.7350	 2094.00	 2113.17	-1395.42	 1518.45
     64.7610	 2130.00	 2111.42	-1357.67	 1518.78
     64.7870	 2066.00	 2109.72	-1419.97	 1519.11
     64.8130	 2131.00	 2108.07	-1353.32	 1519.43
     64.8390	 2100.00	 2106.46	-1382.71	 1519.76
     64.8650	 2050.00	 2104.90	-1431.15	 1520.09
     64.8910	 2070.00	 2103.38	-1409.63	 1520.42
     64.9170	 2092.00	 2101.90	-1386.15	 1520.75
     64.9430	 2041.00	 2100.45	-1435.70	 1521.08
     64.9690	 2099.00	 2099.05	-1376.30	 1521.41
     64.9950	 2081.00	 2097.69	-1392.94	 1521.73
     65.0210	 2006.00	 2096.36	-1466.61	 1522.06
     65.0470	 2015.00	 2095.06	-1456.31	 1522.39
     65.0730	 2072.00	 2093.80	-1398.05	 1522.72
     65.0990	 2056.00	 2092.56	-1412.81	 1523.05
     65.1250	 2024.00	 2091.36	-1443.61	 1523.38
     65.1510	 2077.00	 2090.19	-1389.44	 1523.70
     65.1770	 2039.00	 2089.05	-1426.30	 1524.03
     65.2030	 2092.00	 2087.93	-1372.18	 1524.36
     65.2290	 1991.00	 2086.84	-1472.09	 1524.68
     65.2550	 2017.00	 2085.78	-1445.03	 1525.01
     65.2810	 2081.00	 2084.74	-1379.99	 1525.33
     65.3070	 2094.00	 2083.73	-1365.98	 1525.66
     65.3330	 2063.00	 2082.74	-1395.99	 1525.98
     65.3590	 2019.00	 2081.77	-1439.02	 1526.30
     65.3850	 1986.00	 2080.82	-1471.07	 1526.62
     65.4110	 2054.00	 2079.89	-1402.14	 1526.94
     65.4370	 2121.00	 2078.98	-1334.23	 1527.26
     65.4630	 2136.00	 2078.09	-1318.34	 1527.58
     65.4890	 2069.00	 2077.22	-1384.47	 1527.90
     65.5150	 2060.00	 2076.37	-1392.62	 1528.21
     65.5410	 2068.00	 2075.54	-1383.79	 1528.53
     65.5670	 2081.00	 2074.72	-1369.97	 1528.84
     65.5930	 2062.00	 2073.92	-1388.17	 1529.15
     65.6190	 2131.00	 2073.13	-1318.38	 1529.46
     65.6450	 2017.00	 2072.37	-1431.62	 1529.77
     65.6710	 2088.00	 2071.61	-1359.86	 1530.08
     65.6970	 1983.00	 2070.87	-1464.12	 1530.38
     65.7230	 1967.00	 2070.15	-1479.40	 1530.69
     65.7490	 2004.00	 2069.44	-1441.69	 1530.99
     65.7750	 2035.00	 2068.74	-1409.99	 1531.29
     65.8010	 2019.00	 2068.06	-1425.31	 1531.59
     65.8270	 2017.00	 2067.39	-1426.64	 1531.89
     65.8530	 2026.00	 2066.73	-1416.98	 1532.18
     65.8790	 2047.00	 2066.09	-1395.34	 1532.47
     65.9050	 2023.00	 2065.46	-1418.71	 1532.76
     65.9310	 1956.00	 2064.84	-1485.09	 1533.05
     65.9570	 2011.00	 2064.23	-1429.48	 1533.34
     65.9830	 2028.00	 2063.63	-1411.88	 1533.62
     66.0090	 2008.00	 2063.05	-1431.30	 1533.90
     66.0350	 1945.00	 2062.48	-1493.73	 1534.18
     66.0610	 2032.00	 2061.91	-1406.16	 1534.46
     66.0870	 2017.00	 2061.40	-1420.65	 1534.74
     66.1130	 2054.00	 2060.86	-1383.11	 1535.01
     66.1390	 2038.00	 2060.33	-1398.58	 1535.28
     66.1650	 2101.00	 2059.81	-1335.06	 1535.54
     66.1910	 2100.00	 2059.34	-1335.59	 1535.81
     66.2170	 2038.00	 2058.84	-1397.09	 1536.07
     66.2430	 2085.00	 2058.35	-1349.60	 1536.33
     66.2690	 2094.00	 2057.87	-1340.12	 1536.58
     66.2950	 2086.00	 2057.41	-1347.66	 1536.84
     66.3210	 2032.00	 2056.95	-1401.20	 1537.09
     66.3470	 2039.00	 2056.50	-1393.75	 1537.33
     66.3730	 2072.00	 2056.06	-1360.31	 1537.58
     66.3990	 2115.00	 2055.65	-1316.90	 1537.82
     66.4250	 2097.00	 2055.22	-1334.47	 1538.06
     66.4510	 2064.00	 2054.81	-1367.06	 1538.29
     66.4770	 2073.00	 2054.41	-1357.66	 1538.52
     66.5030	 2049.00	 2054.01	-1381.26	 1538.75
     66.5290	 2028.00	 2053.62	-1401.87	 1538.97
     66.5550	 2059.00	 2053.24	-1370.49	 1539.19
     66.5810	 2080.00	 2052.87	-1349.12	 1539.41
     66.6070	 2068.00	 2052.51	-1360.76	 1539.63
     66.6330	 2060.00	 2052.15	-1368.40	 1539.84
     66.6590	 2050.00	 2051.80	-1378.05	 1540.04
     66.6850	 2081.00	 2051.46	-1346.71	 1540.25
     66.7110	 2099.00	 2051.13	-1328.38	 1540.45
     66.7370	 2065.00	 2050.80	-1362.05	 1540.64
     66.7630	 2094.00	 2050.48	-1332.73	 1540.83
     66.7890	 2114.00	 2050.17	-1312.42	 1541.02
     66.8150	 2107.00	 2049.86	-1319.11	 1541.21
     66.8410	 2129.00	 2049.56	-1296.81	 1541.39
     66.8670	 2109.00	 2049.27	-1316.52	 1541.56
     66.8930	 2047.00	 2048.98	-1378.23	 1541.73
     66.9190	 2075.00	 2048.70	-1349.95	 1541.90
     66.9450	 2089.00	 2048.42	-1335.67	 1542.07
     66.9710	 2106.00	 2048.15	-1318.40	 1542.23
     66.9970	 2075.00	 2047.88	-1349.13	 1542.38
     67.0230	 2105.00	 2047.62	-1318.87	 1542.53
     67.0490	 2056.00	 2047.37	-1367.62	 1542.68
     67.0750	 2028.00	 2047.12	-1395.37	 1542.82
     67.1010	 2078.00	 2046.88	-1345.13	 1542.96
     67.1270	 2059.00	 2046.64	-1363.89	 1543.10
     67.1530	 2039.00	 2046.46	-1383.71	 1543.22
     67.1790	 2053.00	 2046.23	-1369.48	 1543.35
     67.2050	 2043.00	 2046.01	-1379.26	 1543.47
     67.2310	 2039.00	 2045.79	-1383.04	 1543.59
     67.2570	 2024.00	 2045.57	-1397.82	 1543.70
     67.2830	 2080.00	 2045.36	-1341.61	 1543.80
     67.3090	 2055.00	 2045.15	-1366.40	 1543.90
     67.3350	 2038.00	 2044.95	-1383.20	 1544.00
     67.3610	 2009.00	 2044.75	-1412.00	 1544.09
     67.3870	 2089.00	 2044.55	-1331.80	 1544.18
     67.4130	 2168.00	 2044.36	-1252.61	 1544.26
     67.4390	 2073.00	 2044.17	-1347.42	 1544.34
     67.4650	 2082.00	 2043.98	-1338.23	 1544.41
     67.4910	 2150.00	 2043.80	-1270.05	 1544.48
     67.5170	 2067.00	 2043.62	-1352.87	 1544.54
     67.5430	 2002.00	 2043.44	-1417.69	 1544.60
     67.5690	 2064.00	 2043.27	-1355.52	 1544.65
     67.5950	 2069.00	 2043.10	-1350.35	 1544.70
     67.6210	 2032.00	 2042.93	-1387.18	 1544.74
     67.6470	 2070.00	 2042.77	-1349.02	 1544.78
     67.6730	 2074.00	 2042.61	-1344.86	 1544.81
     67.6990	 2022.00	 2042.45	-1396.70	 1544.84
     67.7250	 1967.00	 2042.30	-1451.55	 1544.86
     67.7510	 2068.00	 2042.14	-1350.39	 1544.88
     67.7770	 2038.00	 2041.99	-1380.24	 1544.89
     67.8030	 2140.00	 2041.85	-1278.10	 1544.90
     67.8290	 2171.00	 2041.70	-1246.95	 1544.90
     67.8550	 2040.00	 2041.56	-1377.81	 1544.89
     67.8810	 2080.00	 2041.42	-1337.67	 1544.88
     67.9070	 2157.00	 2041.29	-1260.54	 1544.86
     67.9330	 2084.00	 2041.15	-1333.40	 1544.84
     67.9590	 2123.00	 2041.02	-1294.27	 1544.82
     67.9850	 2014.00	 2040.89	-1403.14	 1544.78
     68.0110	 2036.00	 2040.76	-1381.01	 1544.75
     68.0370	 2065.00	 2040.64	-1351.89	 1544.70
     68.0630	 1999.00	 2040.52	-1417.77	 1544.65
     68.0890	 2019.00	 2040.40	-1397.65	 1544.60
     68.1150	 2060.00	 2040.28	-1356.53	 1544.54
     68.1410	 2082.00	 2040.16	-1334.41	 1544.47
     68.1670	 2091.00	 2040.05	-1325.30	 1544.40
     68.1930	 2156.00	 2039.94	-1260.19	 1544.33
     68.2190	 2100.00	 2039.83	-1316.08	 1544.24
     68.2450	 2073.00	 2039.73	-1342.98	 1544.15
     68.2710	 2083.00	 2039.63	-1332.88	 1544.06
     68.2970	 2075.00	 2039.53	-1340.78	 1543.96
     68.3230	 2053.00	 2039.43	-1362.68	 1543.85
     68.3490	 2047.00	 2039.38	-1368.63	 1543.74
     68.3750	 2137.00	 2039.28	-1278.53	 1543.63
     68.4010	 2112.00	 2039.19	-1303.44	 1543.50
     68.4270	 2051.00	 2039.11	-1364.36	 1543.38
     68.4530	 2101.00	 2039.02	-1314.27	 1543.24
     68.4790	 2071.00	 2038.94	-1344.19	 1543.10
     68.5050	 2040.00	 2038.86	-1375.11	 1542.96
     68.5310	 2035.00	 2038.78	-1380.03	 1542.80
     68.5570	 2075.00	 2038.73	-1339.98	 1542.65
     68.5830	 2082.00	 2038.66	-1332.91	 1542.48
     68.6090	 2080.00	 2038.59	-1334.84	 1542.31
     68.6350	 2089.00	 2038.52	-1325.77	 1542.14
     68.6610	 2071.00	 2038.46	-1343.71	 1541.96
     68.6870	 2028.00	 2038.40	-1386.65	 1541.77
     68.7130	 2052.00	 2038.34	-1362.59	 1541.58
     68.7390	 2064.00	 2037.97	-1350.22	 1541.38
     68.7650	 2064.00	 2037.92	-1350.17	 1541.18
     68.7910	 2107.00	 2037.88	-1307.13	 1540.97
     68.8170	 2001.00	 2037.83	-1413.08	 1540.75
     68.8430	 2045.00	 2037.79	-1369.04	 1540.53
     68.8690	 2085.00	 2037.60	-1328.85	 1540.30
     68.8950	 2012.00	 2037.56	-1401.81	 1540.07
     68.9210	 2028.00	 2037.53	-1385.78	 1539.83
     68.9470	 2104.00	 2037.51	-1309.76	 1539.59
     68.9730	 2111.00	 2037.48	-1302.73	 1539.34
     68.9990	 2075.00	 2037.46	-1338.71	 1539.08
     69.0250	 2031.00	 2037.44	-1382.69	 1538.82
     69.0510	 2028.00	 2037.43	-1385.68	 1538.55
     69.0770	 2093.00	 2037.42	-1320.67	 1538.28
     69.1030	 2111.00	 2037.41	-1302.66	 1538.00
     69.1290	 2096.00	 2037.41	-1317.66	 1537.71
     69.1550	 2122.00	 2037.41	-1291.66	 1537.42
     69.1810	 2113.00	 2037.41	-1300.66	 1537.12
     69.2070	 2083.00	 2037.42	-1330.67	 1536.82
     69.2330	 2121.00	 2037.43	-1292.68	 1536.51
     69.2590	 2079.00	 2037.44	-1334.69	 1536.20
     69.2850	 2010.00	 2037.46	-1403.71	 1535.88
     69.3110	 2033.00	 2037.48	-1380.73	 1535.56
     69.3370	 2040.00	 2037.50	-1373.75	 1535.23
     69.3630	 2027.00	 2037.53	-1386.78	 1534.89
     69.3890	 2046.00	 2037.56	-1367.81	 1534.55
     69.4150	 2104.00	 2037.59	-1309.84	 1534.20
     69.4410	 2079.00	 2037.62	-1334.87	 1533.85
     69.4670	 2067.00	 2037.65	-1346.90	 1533.49
     69.4930	 2077.00	 2037.69	-1336.94	 1533.13
     69.5190	 2093.00	 2037.73	-1320.98	 1532.76
     69.5450	 2114.00	 2037.77	-1300.02	 1532.38
     69.5710	 2077.00	 2037.81	-1337.06	 1532.00
     69.5970	 2067.00	 2037.85	-1347.10	 1531.62
     69.6230	 2148.00	 2037.90	-1266.15	 1531.23
     69.6490	 2026.00	 2037.94	-1388.19	 1530.83
     69.6750	 2018.00	 2037.98	-1396.23	 1530.43
     69.7010	 2081.00	 2038.03	-1333.28	 1530.03
     69.7270	 2053.00	 2038.07	-1361.32	 1529.61
     69.7530	 2019.00	 2038.11	-1395.36	 1529.20
     69.7790	 2015.00	 2038.15	-1399.40	 1528.78
     69.8050	 2046.00	 2038.19	-1368.44	 1528.35
     69.8310	 2127.00	 2038.22	-1287.47	 1527.92
     69.8570	 2083.00	 2038.26	-1331.51	 1527.48
     69.8830	 2047.00	 2038.28	-1367.53	 1527.04
     69.9090	 2067.00	 2038.31	-1347.56	 1526.59
     69.9350	 2065.00	 2038.33	-1349.58	 1526.14
     69.9610	 2039.00	 2038.34	-1375.59	 1525.69
     69.9870	 2065.00	 2038.35	-1349.60	 1525.23
     70.0130	 2062.00	 2038.35	-1352.60	 1524.76
     70.0390	 2059.00	 2038.34	-1355.59	 1524.29
     70.0650	 2058.00	 2038.33	-1356.58	 1523.81
     70.0910	 2041.00	 2038.31	-1373.56	 1523.33
     70.1170	 2023.00	 2038.28	-1391.53	 1522.85
     70.1430	 2075.00	 2038.24	-1339.49	 1522.36
     70.1690	 2133.00	 2038.19	-1281.44	 1521.87
     70.1950	 2080.00	 2038.13	-1334.38	 1521.37
     70.2210	 2096.00	 2038.06	-1318.31	 1520.87
     70.2470	 2086.00	 2037.98	-1328.23	 1520.36
     70.2730	 2082.00	 2037.88	-1332.13	 1519.85
     70.2990	 2126.00	 2037.77	-1288.02	 1519.34
     70.3250	 2139.00	 2037.65	-1274.90	 1518.82
     70.3510	 2148.00	 2037.52	-1265.77	 1518.29
     70.3770	 2012.00	 2037.37	-1401.62	 1517.77
     70.4030	 2021.00	 2037.21	-1392.46	 1517.24
     70.4290	 2140.00	 2037.03	-1273.28	 1516.70
     70.4550	 2044.00	 2036.84	-1369.09	 1516.16
     70.4810	 2044.00	 2036.64	-1368.89	 1515.62
     70.5070	 2133.00	 2036.42	-1279.67	 1515.07
     70.5330	 2112.00	 2036.19	-1300.44	 1514.52
     70.5590	 2089.00	 2035.94	-1323.19	 1513.97
     70.5850	 2020.00	 2035.68	-1391.93	 1513.41
     70.6110	 2037.00	 2035.40	-1374.65	 1512.85
     70.6370	 2025.00	 2035.11	-1386.36	 1512.29
     70.6630	 1992.00	 2034.81	-1419.06	 1511.72
     70.6890	 2030.00	 2034.49	-1380.74	 1511.15
     70.7150	 2082.00	 2034.16	-1328.41	 1510.58
     70.7410	 2111.00	 2033.81	-1299.06	 1510.00
     70.7670	 2032.00	 2033.46	-1377.71	 1509.42
     70.7930	 2057.00	 2033.09	-1352.34	 1508.84
     70.8190	 2064.00	 2032.72	-1344.97	 1508.25
     70.8450	 2088.00	 2032.33	-1320.58	 1507.66
     70.8710	 2049.00	 2031.94	-1359.19	 1507.07
     70.8970	 1986.00	 2031.53	-1421.78	 1506.48
     70.9230	 2085.00	 2031.12	-1322.37	 1505.88
     70.9490	 2043.00	 2030.70	-1363.95	 1505.28
     70.9750	 2120.00	 2030.28	-1286.53	 1504.68
     71.0010	 2091.00	 2029.85	-1315.10	 1504.08
     71.0270	 2082.00	 2029.42	-1323.67	 1503.47
     71.0530	 2044.00	 2028.99	-1361.24	 1502.86
     71.0790	 2102.00	 2028.55	-1302.80	 1502.25
     71.1050	 2066.00	 2028.11	-1338.36	 1501.64
     71.1310	 2068.00	 2027.67	-1335.92	 1501.03
     71.1570	 2053.00	 2027.24	-1350.49	 1500.41
     71.1830	 2035.00	 2026.80	-1368.05	 1499.79
     71.2090	 2117.00	 2026.37	-1285.62	 1499.17
     71.2350	 2075.00	 2025.95	-1327.20	 1498.55
     71.2610	 2030.00	 2025.53	-1371.78	 1497.93
     71.2870	 2047.00	 2025.11	-1354.36	 1497.31
     71.3130	 2037.00	 2024.70	-1363.95	 1496.68
     71.3390	 2038.00	 2024.30	-1362.55	 1496.05
     71.3650	 2058.00	 2023.91	-1342.16	 1495.43
     71.3910	 1952.00	 2023.53	-1447.78	 1494.80
     71.4170	 1963.00	 2023.16	-1436.41	 1494.17
     71.4430	 2039.00	 2022.81	-1360.06	 1493.54
     71.4690	 2042.00	 2022.46	-1356.71	 1492.90
     71.4950	 2000.00	 2022.13	-1398.38	 1492.27
     71.5210	 2078.00	 2021.81	-1320.06	 1491.64
     71.5470	 2048.00	 2021.51	-1349.76	 1491.01
     71.5730	 1966.00	 2021.23	-1431.48	 1490.37
     71.5990	 2004.00	 2020.96	-1393.21	 1489.74
     71.6250	 2054.00	 2020.71	-1342.96	 1489.11
     71.6510	 2065.00	 2020.47	-1331.72	 1488.47
     71.6770	 2085.00	 2020.26	-1311.51	 1487.84
     71.7030	 2101.00	 2020.07	-1295.32	 1487.20
     71.7290	 2082.00	 2019.89	-1314.14	 1486.57
     71.7550	 2076.00	 2019.74	-1319.99	 1485.94
     71.7810	 2016.00	 2019.61	-1379.86	 1485.30
     71.8070	 1975.00	 2019.50	-1420.75	 1484.67
     71.8330	 1974.00	 2019.41	-1421.66	 1484.04
     71.8590	 1977.00	 2019.35	-1418.60	 1483.41
     71.8850	 1982.00	 2019.31	-1413.56	 1482.78
     71.9110	 1975.00	 2019.29	-1420.54	 1482.15
     71.9370	 2030.00	 2019.30	-1365.55	 1481.52
     71.9630	 2007.00	 2019.33	-1388.58	 1480.89
     71.9890	 1953.00	 2019.39	-1442.64	 1480.26
     72.0150	 1987.00	 2019.48	-1408.73	 1479.64
     72.0410	 2014.00	 2019.59	-1381.84	 1479.02
     72.0670	 2033.00	 2019.72	-1362.97	 1478.39
     72.0930	 2002.00	 2019.89	-1394.14	 1477.77
     72.1190	 2019.00	 2020.08	-1377.33	 1477.16
     72.1450	 2005.00	 2020.30	-1391.55	 1476.54
     72.1710	 1987.00	 2020.54	-1409.79	 1475.92
     72.1970	 2077.00	 2020.82	-1320.07	 1475.31
     72.2230	 2051.00	 2021.12	-1346.37	 1474.70
     72.2490	 1988.00	 2021.45	-1409.70	 1474.09
     72.2750	 1982.00	 2021.81	-1416.06	 1473.49
     72.3010	 1969.00	 2022.20	-1429.45	 1472.89
     72.3270	 1964.00	 2022.61	-1434.86	 1472.29
     72.3530	 1961.00	 2023.06	-1438.31	 1471.69
     72.3790	 2006.00	 2023.53	-1393.78	 1471.10
     72.4050	 1974.00	 2024.03	-1426.28	 1470.50
     72.4310	 2001.00	 2024.56	-1399.81	 1469.92
     72.4570	 1983.00	 2025.11	-1418.36	 1469.33
     72.4830	 2025.00	 2025.70	-1376.95	 1468.75
     72.5090	 2019.00	 2026.31	-1383.56	 1468.17
     72.5350	 2071.00	 2026.95	-1332.20	 1467.60
     72.5610	 1977.00	 2027.62	-1426.87	 1467.03
     72.5870	 2028.00	 2028.31	-1376.56	 1466.46
     72.6130	 1973.00	 2029.03	-1432.28	 1465.90
     72.6390	 1918.00	 2029.78	-1488.03	 1465.34
     72.6650	 1965.00	 2030.55	-1441.80	 1464.78
     72.6910	 1989.00	 2031.35	-1418.60	 1464.23
     72.7170	 1962.00	 2032.17	-1446.42	 1463.68
     72.7430	 2034.00	 2033.01	-1375.26	 1463.14
     72.7690	 1965.00	 2033.88	-1445.13	 1462.60
     72.7950	 1961.00	 2034.77	-1450.02	 1462.07
     72.8210	 2001.00	 2035.68	-1410.93	 1461.54
     72.8470	 2022.00	 2036.61	-1390.86	 1461.02
     72.8730	 1987.00	 2037.56	-1426.81	 1460.50
     72.8990	 1956.00	 2038.53	-1458.78	 1459.99
     72.9250	 2028.00	 2039.52	-1387.77	 1459.48
     72.9510	 1985.00	 2040.52	-1431.77	 1458.98
     72.9770	 1988.00	 2041.55	-1429.80	 1458.48
     73.0030	 2013.00	 2042.58	-1405.83	 1457.99
     73.0290	 1994.00	 2043.63	-1425.88	 1457.51
     73.0550	 1929.00	 2044.70	-1491.95	 1457.03
     73.0810	 2000.00	 2045.77	-1422.02	 1456.56
     73.1070	 2050.00	 2046.86	-1373.11	 1456.09
     73.1330	 2069.00	 2047.96	-1355.21	 1455.63
     73.1590	 1995.00	 2049.06	-1430.31	 1455.17
     73.1850	 1946.00	 2050.18	-1480.43	 1454.72
     73.2110	 2059.00	 2051.30	-1368.55	 1454.28
     73.2370	 2075.00	 2052.43	-1353.68	 1453.85
     73.2630	 2007.00	 2053.57	-1422.82	 1453.42
     73.2890	 2018.00	 2054.71	-1412.96	 1452.99
     73.3150	 1974.00	 2055.86	-1458.11	 1452.58
     73.3410	 2042.00	 2057.01	-1391.26	 1452.17
     73.3670	 2013.00	 2058.16	-1421.41	 1451.77
     73.3930	 2013.00	 2059.32	-1422.57	 1451.38
     73.4190	 1990.00	 2060.49	-1446.74	 1450.99
     73.4450	 2029.00	 2061.66	-1408.91	 1450.61
     73.4710	 2013.00	 2062.83	-1426.08	 1450.24
     73.4970	 2039.00	 2064.01	-1401.26	 1449.88
     73.5230	 2051.00	 2065.20	-1390.45	 1449.52
     73.5490	 2018.00	 2066.39	-1424.64	 1449.17
     73.5750	 1951.00	 2067.59	-1492.84	 1448.83
     73.6010	 2033.00	 2068.81	-1412.06	 1448.50
     73.6270	 1987.00	 2070.03	-1459.28	 1448.18
     73.6530	 2059.00	 2071.27	-1388.52	 1447.86
     73.6790	 2010.00	 2072.53	-1438.78	 1447.55
     73.7050	 2079.00	 2073.81	-1371.06	 1447.25
     73.7310	 2003.00	 2075.11	-1448.36	 1446.96
     73.7570	 2013.00	 2076.43	-1439.68	 1446.68
     73.7830	 2041.00	 2077.79	-1413.04	 1446.41
     73.8090	 2010.00	 2079.19	-1445.44	 1446.14
     73.8350	 2073.00	 2080.62	-1383.87	 1445.89
     73.8610	 2081.00	 2082.11	-1377.36	 1445.64
     73.8870	 2103.00	 2083.64	-1356.89	 1445.40
     73.9130	 2043.00	 2085.25	-1418.50	 1445.17
     73.9390	 2030.00	 2086.92	-1433.17	 1444.95
     73.9650	 2085.00	 2088.66	-1379.91	 1444.74
     73.9910	 2154.00	 2090.55	-1312.80	 1444.54
     74.0170	 2090.00	 2092.49	-1378.74	 1444.35
     74.0430	 2107.00	 2094.56	-1363.81	 1444.17
     74.0690	 2091.00	 2096.74	-1381.99	 1444.00
     74.0950	 2072.00	 2099.06	-1403.31	 1443.83
     74.1210	 2046.00	 2101.54	-1431.79	 1443.68
     74.1470	 2103.00	 2104.19	-1377.44	 1443.54
     74.1730	 2187.00	 2107.04	-1296.29	 1443.40
     74.1990	 2176.00	 2110.10	-1310.35	 1443.28
     74.2250	 2120.00	 2113.40	-1369.65	 1443.17
     74.2510	 2129.00	 2116.97	-1364.22	 1443.06
     74.2770	 2161.00	 2120.83	-1336.08	 1442.97
     74.3030	 2223.00	 2125.01	-1278.26	 1442.89
     74.3290	 2178.00	 2129.53	-1327.78	 1442.81
     74.3550	 2114.00	 2134.44	-1396.69	 1442.75
     74.3810	 2125.00	 2139.74	-1390.99	 1442.70
     74.4070	 2182.00	 2145.48	-1339.73	 1442.65
     74.4330	 2216.00	 2151.68	-1311.93	 1442.62
     74.4590	 2239.00	 2158.35	-1295.60	 1442.60
     74.4850	 2271.00	 2165.51	-1270.76	 1442.59
     74.5110	 2229.00	 2173.14	-1320.39	 1442.59
     74.5370	 2170.00	 2181.23	-1387.48	 1442.60
     74.5630	 2154.00	 2189.74	-1411.99	 1442.62
     74.5890	 2179.00	 2198.59	-1395.84	 1442.65
     74.6150	 2181.00	 2207.67	-1402.92	 1442.69
     74.6410	 2172.00	 2216.84	-1421.09	 1442.74
     74.6670	 2202.00	 2225.92	-1400.17	 1442.81
     74.6930	 2215.00	 2234.70	-1395.95	 1442.88
     74.7190	 2223.00	 2242.92	-1396.17	 1442.96
     74.7450	 2265.00	 2250.32	-1361.57	 1443.06
     74.7710	 2261.00	 2256.67	-1371.92	 1443.16
     74.7970	 2262.00	 2261.72	-1375.97	 1443.28
     74.8230	 2207.00	 2265.29	-1434.54	 1443.41
     74.8490	 2127.00	 2267.28	-1516.53	 1443.54
     74.8750	 2140.00	 2267.64	-1503.89	 1443.69
     74.9010	 2185.00	 2266.37	-1457.62	 1443.85
     74.9270	 2196.00	 2263.54	-1443.79	 1444.02
     74.9530	 2208.00	 2259.27	-1427.52	 1444.20
     74.9790	 2178.00	 2253.67	-1451.92	 1444.39
     75.0050	 2234.00	 2246.90	-1389.15	 1444.59
     75.0310	 2216.00	 2239.09	-1399.34	 1444.80
     75.0570	 2184.00	 2230.41	-1422.66	 1445.03
     75.0830	 2193.00	 2221.01	-1404.26	 1445.26
     75.1090	 2140.00	 2211.06	-1447.31	 1445.50
     75.1350	 2173.00	 2200.73	-1403.98	 1445.76
     75.1610	 2140.00	 2190.18	-1426.43	 1446.02
     75.1870	 2112.00	 2179.58	-1443.83	 1446.30
     75.2130	 2145.00	 2169.06	-1400.31	 1446.58
     75.2390	 2200.00	 2158.75	-1335.00	 1446.88
     75.2650	 2140.00	 2148.74	-1384.99	 1447.18
     75.2910	 2140.00	 2139.12	-1375.37	 1447.50
     75.3170	 2088.00	 2129.92	-1418.17	 1447.82
     75.3430	 2101.00	 2121.19	-1396.44	 1448.16
     75.3690	 2090.00	 2112.93	-1399.18	 1448.50
     75.3950	 2087.00	 2105.16	-1394.41	 1448.86
     75.4210	 2092.00	 2097.86	-1382.11	 1449.22
     75.4470	 2131.00	 2091.02	-1336.27	 1449.60
     75.4730	 2056.00	 2084.61	-1404.86	 1449.98
     75.4990	 2125.00	 2078.62	-1329.87	 1450.38
     75.5250	 2082.00	 2073.01	-1367.26	 1450.78
     75.5510	 2043.00	 2067.77	-1401.02	 1451.19
     75.5770	 2101.00	 2062.87	-1338.12	 1451.61
     75.6030	 2005.00	 2058.29	-1429.54	 1452.04
     75.6290	 2065.00	 2054.00	-1365.25	 1452.48
     75.6550	 2053.00	 2049.99	-1373.24	 1452.93
     75.6810	 2017.00	 2046.22	-1405.47	 1453.38
     75.7070	 2059.00	 2042.69	-1359.94	 1453.84
     75.7330	 2066.00	 2039.37	-1349.62	 1454.32
     75.7590	 2138.00	 2036.26	-1274.51	 1454.80
     75.7850	 2072.00	 2033.33	-1337.58	 1455.29
     75.8110	 2000.00	 2030.57	-1406.82	 1455.78
     75.8370	 2126.00	 2027.98	-1278.23	 1456.28
     75.8630	 2116.00	 2025.54	-1285.79	 1456.79
     75.8890	 2159.00	 2023.23	-1240.48	 1457.31
     75.9150	 2044.00	 2021.06	-1353.31	 1457.84
     75.9410	 2044.00	 2019.01	-1351.26	 1458.37
     75.9670	 2043.00	 2017.08	-1350.33	 1458.91
     75.9930	 2052.00	 2015.26	-1339.51	 1459.45
     76.0190	 2010.00	 2013.54	-1379.79	 1460.00
     76.0450	 2040.00	 2011.91	-1348.16	 1460.56
     76.0710	 1986.00	 2010.38	-1400.63	 1461.12
     76.0970	 2048.00	 2008.93	-1337.18	 1461.69
     76.1230	 2029.00	 2007.57	-1354.82	 1462.26
     76.1490	 2113.00	 2006.28	-1269.53	 1462.84
     76.1750	 2070.00	 2005.07	-1311.32	 1463.42
     76.2010	 2031.00	 2003.92	-1349.17	 1464.00
     76.2270	 2045.00	 2002.85	-1334.10	 1464.59
     76.2530	 1968.00	 2001.83	-1410.08	 1465.19
     76.2790	 2065.00	 2000.88	-1312.13	 1465.79
     76.3050	 2002.00	 1999.99	-1374.24	 1466.39
     76.3310	 2096.00	 1999.15	-1279.40	 1466.99
     76.3570	 2089.00	 1998.37	-1285.62	 1467.60
     76.3830	 2143.00	 1997.64	-1230.89	 1468.21
     76.4090	 2091.00	 1996.96	-1282.21	 1468.82
     76.4350	 2044.00	 1996.32	-1328.57	 1469.43
     76.4610	 2054.00	 1995.74	-1317.99	 1470.04
     76.4870	 2087.00	 1995.19	-1284.44	 1470.66
     76.5130	 2042.00	 1994.69	-1328.94	 1471.27
     76.5390	 2076.00	 1994.23	-1294.48	 1471.88
     76.5650	 2025.00	 1993.80	-1345.05	 1472.50
     76.5910	 2034.00	 1993.42	-1335.67	 1473.11
     76.6170	 1997.00	 1993.07	-1372.32	 1473.73
     76.6430	 2020.00	 1992.76	-1349.01	 1474.34
     76.6690	 2083.00	 1992.48	-1285.73	 1474.95
     76.6950	 2072.00	 1992.24	-1296.49	 1475.55
     76.7210	 2045.00	 1992.02	-1323.27	 1476.16
     76.7470	 2118.00	 1991.84	-1250.09	 1476.76
     76.7730	 2072.00	 1991.69	-1295.94	 1477.35
     76.7990	 2060.00	 1991.57	-1307.82	 1477.95
     76.8250	 2060.00	 1991.47	-1307.72	 1478.54
     76.8510	 2050.00	 1991.40	-1317.65	 1479.12
     76.8770	 2062.00	 1991.36	-1305.61	 1479.70
     76.9030	 2058.00	 1991.35	-1309.60	 1480.27
     76.9290	 2061.00	 1991.36	-1306.61	 1480.83
     76.9550	 2057.00	 1991.39	-1310.64	 1481.39
     76.9810	 2083.00	 1991.45	-1284.70	 1481.94
     77.0070	 2089.00	 1991.53	-1278.78	 1482.48
     77.0330	 2020.00	 1991.64	-1347.89	 1483.01
     77.0590	 2032.00	 1991.77	-1336.02	 1483.54
     77.0850	 2075.00	 1991.92	-1293.17	 1484.05
     77.1110	 2057.00	 1992.09	-1311.34	 1484.55
     77.1370	 2076.00	 1992.28	-1292.53	 1485.04
     77.1630	 2076.00	 1992.50	-1292.75	 1485.52
     77.1890	 2050.00	 1992.73	-1318.98	 1485.99
     77.2150	 2093.00	 1992.99	-1276.24	 1486.45
     77.2410	 2102.00	 1993.27	-1267.52	 1486.89
     77.2670	 2060.00	 1993.57	-1309.82	 1487.31
     77.2930	 2071.00	 1993.89	-1299.14	 1487.72
     77.3190	 2057.00	 1994.23	-1313.48	 1488.12
     77.3450	 2036.00	 1994.60	-1334.85	 1488.50
     77.3710	 2076.00	 1994.98	-1295.23	 1488.86
     77.3970	 2074.00	 1995.39	-1297.64	 1489.20
     77.4230	 2041.00	 1995.83	-1331.08	 1489.52
     77.4490	 2038.00	 1996.29	-1334.54	 1489.83
     77.4750	 2068.00	 1996.77	-1305.02	 1490.11
     77.5010	 2070.00	 1997.28	-1303.53	 1490.38
     77.5270	 2079.00	 1997.82	-1295.07	 1490.62
     77.5530	 2059.00	 1998.39	-1315.64	 1490.84
     77.5790	 2051.00	 1998.99	-1324.24	 1491.04
     77.6050	 2046.00	 1999.62	-1329.87	 1491.21
     77.6310	 2102.00	 2000.29	-1274.54	 1491.36
     77.6570	 2042.00	 2001.00	-1335.25	 1491.48
     77.6830	 2068.00	 2001.75	-1310.00	 1491.57
     77.7090	 2049.00	 2002.54	-1329.79	 1491.64
     77.7350	 2096.00	 2003.39	-1283.64	 1491.67
     77.7610	 2065.00	 2004.28	-1315.53	 1491.68
     77.7870	 2028.00	 2005.24	-1353.49	 1491.66
     77.8130	 2006.00	 2006.26	-1376.51	 1491.60
     77.8390	 2051.00	 2007.34	-1332.59	 1491.52
     77.8650	 2053.00	 2008.50	-1331.75	 1491.40
     77.8910	 1997.00	 2009.75	-1389.00	 1491.24
     77.9170	 2022.00	 2011.09	-1365.34	 1491.05
     77.9430	 2039.00	 2012.52	-1349.77	 1490.83
     77.9690	 2097.00	 2014.07	-1293.32	 1490.56
     77.9950	 2033.00	 2015.74	-1358.99	 1490.26
     78.0210	 2124.00	 2017.54	-1269.79	 1489.92
     78.0470	 2005.00	 2019.49	-1390.74	 1489.53
     78.0730	 2041.00	 2021.60	-1356.85	 1489.11
     78.0990	 2032.00	 2023.89	-1368.14	 1488.64
     78.1250	 2038.00	 2026.38	-1364.63	 1488.13
     78.1510	 2064.00	 2029.09	-1341.34	 1487.57
     78.1770	 2036.00	 2032.04	-1372.29	 1486.97
     78.2030	 2015.00	 2035.25	-1396.50	 1486.32
     78.2290	 2078.00	 2038.74	-1336.99	 1485.62
     78.2550	 2011.00	 2042.55	-1407.80	 1484.86
     78.2810	 2065.00	 2046.69	-1357.94	 1484.06
     78.3070	 1982.00	 2051.20	-1445.45	 1483.21
     78.3330	 2115.00	 2056.10	-1317.35	 1482.30
     78.3590	 2056.00	 2061.42	-1381.67	 1481.33
     78.3850	 2075.00	 2067.17	-1368.42	 1480.31
     78.4110	 2076.00	 2073.38	-1373.63	 1479.23
     78.4370	 2160.00	 2080.05	-1296.30	 1478.09
     78.4630	 2032.00	 2087.18	-1431.43	 1476.90
     78.4890	 2056.00	 2094.74	-1414.99	 1475.63
     78.5150	 2042.00	 2102.70	-1436.95	 1474.31
     78.5410	 2049.00	 2110.98	-1438.23	 1472.92
     78.5670	 2080.00	 2119.50	-1415.75	 1471.46
     78.5930	 2017.00	 2128.11	-1487.36	 1469.94
     78.6190	 2060.00	 2136.65	-1452.90	 1468.34
     78.6450	 2073.00	 2144.91	-1448.16	 1466.68
     78.6710	 1948.00	 2152.66	-1580.91	 1464.94
     78.6970	 2051.00	 2159.65	-1484.90	 1463.13
     78.7230	 2061.00	 2165.62	-1480.87	 1461.24
     78.7490	 2048.00	 2170.34	-1498.59	 1459.28
     78.7750	 2032.00	 2173.62	-1517.87	 1457.23
     78.8010	 2050.00	 2175.30	-1501.55	 1455.11
     78.8270	 1972.00	 2175.31	-1579.56	 1452.90
     78.8530	 2049.00	 2173.63	-1500.88	 1450.61
     78.8790	 2058.00	 2170.30	-1488.55	 1448.23
     78.9050	 2090.00	 2165.41	-1451.66	 1445.77
     78.9310	 2049.00	 2159.06	-1486.31	 1443.21
     78.9570	 1999.00	 2151.38	-1528.63	 1440.57
     78.9830	 2009.00	 2142.50	-1509.75	 1437.83
     79.0090	 2063.00	 2132.55	-1445.80	 1434.99
     79.0350	 2025.00	 2121.67	-1472.92	 1432.06
     79.0610	 1996.00	 2110.00	-1490.25	 1429.04
     79.0870	 1986.00	 2097.68	-1487.93	 1425.91
     79.1130	 2075.00	 2084.86	-1386.11	 1422.68
     79.1390	 2098.00	 2071.70	-1349.95	 1419.34
     79.1650	 2001.00	 2058.35	-1433.60	 1415.90
     79.1910	 2028.00	 2044.93	-1393.18	 1412.35
     79.2170	 2020.00	 2031.58	-1387.83	 1408.69
     79.2430	 1982.00	 2018.37	-1412.62	 1404.91
     79.2690	 1988.00	 2005.40	-1393.65	 1401.02
     79.2950	 1993.00	 1992.72	-1375.97	 1397.02
     79.3210	 2025.00	 1980.35	-1331.60	 1392.90
     79.3470	 1948.00	 1968.32	-1396.57	 1388.65
     79.3730	 1929.00	 1956.64	-1403.89	 1384.28
     79.3990	 1948.00	 1945.30	-1373.55	 1379.79
     79.4250	 1908.00	 1934.28	-1402.53	 1375.17
     79.4510	 1935.00	 1923.56	-1364.81	 1370.41
     79.4770	 1974.00	 1913.12	-1315.37	 1365.53
     79.5030	 1929.00	 1902.93	-1350.18	 1360.51
     79.5290	 1919.00	 1892.97	-1350.22	 1355.36
     79.5550	 1946.00	 1883.21	-1313.46	 1350.06
     79.5810	 1901.00	 1873.62	-1348.87	 1344.62
     79.6070	 1903.00	 1864.17	-1337.42	 1339.04
     79.6330	 1917.00	 1854.84	-1314.09	 1333.31
     79.6590	 1914.00	 1845.62	-1307.87	 1327.43
     79.6850	 1968.00	 1836.46	-1244.71	 1321.40
     79.7110	 1990.00	 1827.37	-1213.62	 1315.22
     79.7370	 1938.00	 1818.30	-1256.55	 1308.88
     79.7630	 1889.00	 1809.26	-1296.51	 1302.38
     79.7890	 1920.00	 1800.21	-1256.46	 1295.71
     79.8150	 1928.00	 1791.15	-1239.40	 1288.88
     79.8410	 1892.00	 1782.06	-1266.31	 1281.88
     79.8670	 1909.00	 1772.92	-1240.17	 1274.72
