 DD67    CELL:    8.41953   8.41953   8.41953   90.0000   90.0000   90.0000   SPGR: F d -3 m               TEMP:      0.00
  2   2495     1.54056     1.54443     0.00000     0.00000     0.00000    0
    32    10     0     0     0
 2Theta	Yobs	Ycal	Yobs-Ycal	Backg	Posr	(hkl)	K
     15.0230	 2829.00	 2794.47	-1342.81	 2381.72
     15.0490	 2821.00	 2802.21	-1358.55	 2388.87
     15.0750	 2926.00	 2809.72	-1261.05	 2395.78
     15.1010	 2899.00	 2817.00	-1295.33	 2402.45
     15.1270	 2833.00	 2824.06	-1368.39	 2408.90
     15.1530	 2817.00	 2830.90	-1391.24	 2415.13
     15.1790	 2878.00	 2837.54	-1336.87	 2421.14
     15.2050	 2852.00	 2843.97	-1369.30	 2426.95
     15.2310	 2796.00	 2850.20	-1431.53	 2432.54
     15.2570	 2894.00	 2856.23	-1339.57	 2437.94
     15.2830	 2907.00	 2862.08	-1332.41	 2443.14
     15.3090	 2907.00	 2867.74	-1338.07	 2448.14
     15.3350	 2949.00	 2873.22	-1301.55	 2452.96
     15.3610	 2889.00	 2878.52	-1366.86	 2457.60
     15.3870	 2883.00	 2883.65	-1377.99	 2462.06
     15.4130	 2803.00	 2888.62	-1462.96	 2466.35
     15.4390	 2831.00	 2893.42	-1439.76	 2470.47
     15.4650	 2893.00	 2898.07	-1382.41	 2474.42
     15.4910	 2925.00	 2902.56	-1354.90	 2478.22
     15.5170	 2902.00	 2906.91	-1382.24	 2481.86
     15.5430	 2959.00	 2911.11	-1329.44	 2485.35
     15.5690	 2915.00	 2915.17	-1377.50	 2488.69
     15.5950	 2836.00	 2919.09	-1460.43	 2491.88
     15.6210	 2889.00	 2922.88	-1411.22	 2494.94
     15.6470	 2828.00	 2926.54	-1475.88	 2497.86
     15.6730	 2960.00	 2930.08	-1347.41	 2500.65
     15.6990	 2965.00	 2933.49	-1345.83	 2503.31
     15.7250	 2908.00	 2936.79	-1406.13	 2505.85
     15.7510	 2946.00	 2939.98	-1371.31	 2508.27
     15.7770	 2939.00	 2943.05	-1381.39	 2510.57
     15.8030	 2920.00	 2946.02	-1403.36	 2512.75
     15.8290	 2872.00	 2948.89	-1454.23	 2514.83
     15.8550	 2920.00	 2951.66	-1408.99	 2516.80
     15.8810	 3007.00	 2954.33	-1324.66	 2518.67
     15.9070	 2985.00	 2956.91	-1349.24	 2520.43
     15.9330	 2947.00	 2959.40	-1389.73	 2522.10
     15.9590	 2902.00	 2961.80	-1437.14	 2523.68
     15.9850	 2865.00	 2964.12	-1476.46	 2525.17
     16.0110	 2905.00	 2966.36	-1438.70	 2526.57
     16.0370	 2924.00	 2968.53	-1421.86	 2527.88
     16.0630	 2921.00	 2970.62	-1426.95	 2529.12
     16.0890	 2969.00	 2972.64	-1380.97	 2530.27
     16.1150	 2905.00	 2974.59	-1446.92	 2531.35
     16.1410	 2961.00	 2976.47	-1392.81	 2532.36
     16.1670	 2803.00	 2978.30	-1552.63	 2533.30
     16.1930	 2938.00	 2980.06	-1419.40	 2534.17
     16.2190	 2910.00	 2981.77	-1449.11	 2534.98
     16.2450	 2916.00	 2983.42	-1444.76	 2535.73
     16.2710	 2955.00	 2985.02	-1407.36	 2536.41
     16.2970	 2914.00	 2986.57	-1449.91	 2537.04
     16.3230	 2923.00	 2988.07	-1442.41	 2537.62
     16.3490	 2974.00	 2989.53	-1392.87	 2538.14
     16.3750	 2988.00	 2990.95	-1380.28	 2538.62
     16.4010	 2977.00	 2992.32	-1392.66	 2539.05
     16.4270	 3066.00	 2993.66	-1305.00	 2539.43
     16.4530	 3077.00	 2994.96	-1295.30	 2539.77
     16.4790	 2992.00	 2996.23	-1381.56	 2540.07
     16.5050	 3048.00	 2997.46	-1326.80	 2540.34
     16.5310	 2949.00	 2998.66	-1427.00	 2540.56
     16.5570	 2908.00	 2999.84	-1469.18	 2540.76
     16.5830	 2984.00	 3000.99	-1394.33	 2540.92
     16.6090	 3028.00	 3002.12	-1351.45	 2541.05
     16.6350	 3020.00	 3003.22	-1360.56	 2541.16
     16.6610	 2989.00	 3004.30	-1392.64	 2541.24
     16.6870	 2975.00	 3005.36	-1407.70	 2541.29
     16.7130	 2942.00	 3006.41	-1441.74	 2541.33
     16.7390	 2957.00	 3007.44	-1427.77	 2541.34
     16.7650	 3022.00	 3008.45	-1363.79	 2541.33
     16.7910	 3016.00	 3009.45	-1370.79	 2541.31
     16.8170	 3054.00	 3010.44	-1333.77	 2541.27
     16.8430	 3104.00	 3011.41	-1284.75	 2541.22
     16.8690	 3043.00	 3012.38	-1346.72	 2541.16
     16.8950	 3011.00	 3013.34	-1379.68	 2541.08
     16.9210	 3019.00	 3014.29	-1372.63	 2541.00
     16.9470	 3040.00	 3015.24	-1352.57	 2540.91
     16.9730	 3031.00	 3016.18	-1362.51	 2540.82
     16.9990	 2975.00	 3017.11	-1419.45	 2540.72
     17.0250	 2998.00	 3018.04	-1397.38	 2540.61
     17.0510	 3047.00	 3018.98	-1349.31	 2540.51
     17.0770	 3062.00	 3019.91	-1335.24	 2540.41
     17.1030	 3027.00	 3020.83	-1371.17	 2540.30
     17.1290	 3031.00	 3021.76	-1368.10	 2540.20
     17.1550	 3102.00	 3022.69	-1298.03	 2540.10
     17.1810	 3077.00	 3023.63	-1323.96	 2540.01
     17.2070	 3012.00	 3024.56	-1389.90	 2539.92
     17.2330	 2985.00	 3025.50	-1417.83	 2539.84
     17.2590	 3049.00	 3026.44	-1354.77	 2539.77
     17.2850	 3091.00	 3027.38	-1313.72	 2539.71
     17.3110	 3002.00	 3028.33	-1403.67	 2539.65
     17.3370	 3085.00	 3029.28	-1321.62	 2539.61
     17.3630	 3020.00	 3030.24	-1387.58	 2539.58
     17.3890	 3021.00	 3031.20	-1387.54	 2539.57
     17.4150	 3088.00	 3032.17	-1321.51	 2539.57
     17.4410	 3081.00	 3033.15	-1329.49	 2539.58
     17.4670	 3044.00	 3034.13	-1367.47	 2539.61
     17.4930	 3057.00	 3035.12	-1355.45	 2539.65
     17.5190	 3135.00	 3036.11	-1278.45	 2539.72
     17.5450	 3093.00	 3037.11	-1321.45	 2539.80
     17.5710	 3096.00	 3038.12	-1319.46	 2539.90
     17.5970	 3080.00	 3039.14	-1336.47	 2540.02
     17.6230	 3163.00	 3040.16	-1254.50	 2540.16
     17.6490	 3101.00	 3041.19	-1317.53	 2540.32
     17.6750	 3012.00	 3042.22	-1407.56	 2540.50
     17.7010	 3062.00	 3043.27	-1358.61	 2540.71
     17.7270	 3075.00	 3044.32	-1346.66	 2540.94
     17.7530	 3150.00	 3045.38	-1272.71	 2541.19
     17.7790	 3061.00	 3046.44	-1362.78	 2541.47
     17.8050	 3014.00	 3047.52	-1410.85	 2541.77
     17.8310	 3092.00	 3048.60	-1333.93	 2542.10
     17.8570	 3134.00	 3049.69	-1293.02	 2542.45
     17.8830	 3041.00	 3050.78	-1387.12	 2542.83
     17.9090	 3107.00	 3051.88	-1322.22	 2543.24
     17.9350	 3076.00	 3052.99	-1354.33	 2543.67
     17.9610	 3056.00	 3054.11	-1375.45	 2544.13
     17.9870	 3030.00	 3055.23	-1402.57	 2544.62
     18.0130	 3002.00	 3056.36	-1431.70	 2545.14
     18.0390	 3229.00	 3057.50	-1205.84	 2545.69
     18.0650	 3146.00	 3058.65	-1289.99	 2546.26
     18.0910	 3129.00	 3059.80	-1308.14	 2546.87
     18.1170	 3058.00	 3060.97	-1380.30	 2547.50
     18.1430	 3052.00	 3062.13	-1387.47	 2548.17
     18.1690	 3090.00	 3063.31	-1350.65	 2548.86
     18.1950	 3057.00	 3064.49	-1384.83	 2549.58
     18.2210	 3110.00	 3065.69	-1333.02	 2550.34
     18.2470	 3151.00	 3066.89	-1293.22	 2551.13
     18.2730	 3093.00	 3068.10	-1352.43	 2551.95
     18.2990	 3046.00	 3069.31	-1400.65	 2552.79
     18.3250	 3015.00	 3070.54	-1432.88	 2553.67
     18.3510	 3017.00	 3071.77	-1432.11	 2554.59
     18.3770	 3050.00	 3073.02	-1400.35	 2555.53
     18.4030	 3040.00	 3074.27	-1411.61	 2556.50
     18.4290	 3067.00	 3075.53	-1385.87	 2557.51
     18.4550	 3152.00	 3076.81	-1302.14	 2558.55
     18.4810	 3161.00	 3078.09	-1294.43	 2559.62
     18.5070	 3056.00	 3079.38	-1400.72	 2560.72
     18.5330	 3100.00	 3080.69	-1358.03	 2561.86
     18.5590	 3027.00	 3082.01	-1432.34	 2563.03
     18.5850	 3098.00	 3083.33	-1362.67	 2564.22
     18.6110	 3091.00	 3084.68	-1371.01	 2565.45
     18.6370	 3115.00	 3086.03	-1348.37	 2566.72
     18.6630	 3149.00	 3087.40	-1315.73	 2568.01
     18.6890	 3138.00	 3088.78	-1328.11	 2569.34
     18.7150	 3087.00	 3090.17	-1380.51	 2570.70
     18.7410	 3062.00	 3091.58	-1406.92	 2572.09
     18.7670	 3124.00	 3093.00	-1346.34	 2573.51
     18.7930	 3075.00	 3094.44	-1396.78	 2574.96
     18.8190	 3100.00	 3095.90	-1373.24	 2576.44
     18.8450	 3137.00	 3097.37	-1337.71	 2577.96
     18.8710	 3125.00	 3098.86	-1351.20	 2579.51
     18.8970	 3114.00	 3100.37	-1363.70	 2581.08
     18.9230	 3087.00	 3101.89	-1392.23	 2582.69
     18.9490	 3168.00	 3103.43	-1312.77	 2584.33
     18.9750	 3118.00	 3104.99	-1364.33	 2586.00
     19.0010	 3130.00	 3106.57	-1353.91	 2587.70
     19.0270	 3137.00	 3108.17	-1348.51	 2589.43
     19.0530	 3078.00	 3109.79	-1409.13	 2591.18
     19.0790	 3016.00	 3111.43	-1472.77	 2592.97
     19.1050	 2995.00	 3113.10	-1495.43	 2594.79
     19.1310	 3054.00	 3114.78	-1438.12	 2596.64
     19.1570	 3053.00	 3116.48	-1440.82	 2598.51
     19.1830	 3127.00	 3118.21	-1368.55	 2600.42
     19.2090	 3157.00	 3119.96	-1340.30	 2602.35
     19.2350	 3106.00	 3121.73	-1393.07	 2604.31
     19.2610	 3082.00	 3123.53	-1418.87	 2606.29
     19.2870	 3090.00	 3125.35	-1412.69	 2608.31
     19.3130	 3094.00	 3127.19	-1410.53	 2610.35
     19.3390	 3123.00	 3129.06	-1383.40	 2612.42
     19.3650	 3148.00	 3130.95	-1360.29	 2614.51
     19.3910	 3127.00	 3132.87	-1383.21	 2616.64
     19.4170	 3136.00	 3134.81	-1376.15	 2618.78
     19.4430	 3098.00	 3136.78	-1416.11	 2620.95
     19.4690	 3039.00	 3138.77	-1477.10	 2623.15
     19.4950	 3034.00	 3140.78	-1484.12	 2625.37
     19.5210	 3018.00	 3142.83	-1502.16	 2627.62
     19.5470	 3085.00	 3144.89	-1437.23	 2629.89
     19.5730	 3159.00	 3146.99	-1365.32	 2632.18
     19.5990	 3152.00	 3149.10	-1374.44	 2634.50
     19.6250	 3139.00	 3151.25	-1389.59	 2636.84
     19.6510	 3157.00	 3153.42	-1373.76	 2639.20
     19.6770	 3182.00	 3155.62	-1350.95	 2641.58
     19.7030	 3112.00	 3157.84	-1423.17	 2643.98
     19.7290	 3104.00	 3160.08	-1433.42	 2646.41
     19.7550	 3120.00	 3162.36	-1419.69	 2648.86
     19.7810	 3178.00	 3164.65	-1363.99	 2651.32
     19.8070	 3150.00	 3166.98	-1394.32	 2653.81
     19.8330	 3093.00	 3169.33	-1453.66	 2656.31
     19.8590	 3136.00	 3171.70	-1413.04	 2658.84
     19.8850	 3210.00	 3174.10	-1341.44	 2661.38
     19.9110	 3208.00	 3176.53	-1345.86	 2663.94
     19.9370	 3167.00	 3178.97	-1389.31	 2666.52
     19.9630	 3223.00	 3181.45	-1335.78	 2669.12
     19.9890	 3215.00	 3183.94	-1346.28	 2671.73
     20.0150	 3202.00	 3186.47	-1361.80	 2674.36
     20.0410	 3178.00	 3189.01	-1388.35	 2677.00
     20.0670	 3160.00	 3191.58	-1408.92	 2679.66
     20.0930	 3224.00	 3194.17	-1347.51	 2682.34
     20.1190	 3267.00	 3196.78	-1307.12	 2685.03
     20.1450	 3238.00	 3199.42	-1338.76	 2687.73
     20.1710	 3192.00	 3202.08	-1387.42	 2690.45
     20.1970	 3211.00	 3204.76	-1371.10	 2693.18
     20.2230	 3212.00	 3207.46	-1372.80	 2695.92
     20.2490	 3153.00	 3210.19	-1434.52	 2698.67
     20.2750	 3133.00	 3212.93	-1457.27	 2701.43
     20.3010	 3140.00	 3215.69	-1453.03	 2704.21
     20.3270	 3157.00	 3218.48	-1438.82	 2707.00
     20.3530	 3209.00	 3221.28	-1389.62	 2709.79
     20.3790	 3199.00	 3224.11	-1402.44	 2712.60
     20.4050	 3320.00	 3226.95	-1284.28	 2715.41
     20.4310	 3252.00	 3229.81	-1355.14	 2718.23
     20.4570	 3290.00	 3232.69	-1320.02	 2721.06
     20.4830	 3356.00	 3235.58	-1256.92	 2723.90
     20.5090	 3144.00	 3238.49	-1471.83	 2726.75
     20.5350	 3292.00	 3241.42	-1326.76	 2729.60
     20.5610	 3185.00	 3244.37	-1436.70	 2732.46
     20.5870	 3238.00	 3247.33	-1386.67	 2735.32
     20.6130	 3281.00	 3250.30	-1346.64	 2738.18
     20.6390	 3371.00	 3253.29	-1259.63	 2741.06
     20.6650	 3316.00	 3256.30	-1317.64	 2743.93
     20.6910	 3164.00	 3259.32	-1472.65	 2746.81
     20.7170	 3333.00	 3262.35	-1306.68	 2749.69
     20.7430	 3367.00	 3265.39	-1275.73	 2752.58
     20.7690	 3300.00	 3268.45	-1345.78	 2755.46
     20.7950	 3242.00	 3271.52	-1406.85	 2758.35
     20.8210	 3256.00	 3274.59	-1395.93	 2761.24
     20.8470	 3231.00	 3277.68	-1424.02	 2764.12
     20.8730	 3257.00	 3280.78	-1401.12	 2767.01
     20.8990	 3321.00	 3283.89	-1340.23	 2769.90
     20.9250	 3208.00	 3287.01	-1456.35	 2772.78
     20.9510	 3373.00	 3290.14	-1294.48	 2775.67
     20.9770	 3213.00	 3293.27	-1457.61	 2778.55
     21.0030	 3259.00	 3296.42	-1414.75	 2781.43
     21.0290	 3276.00	 3299.57	-1400.90	 2784.30
     21.0550	 3159.00	 3302.72	-1521.06	 2787.17
     21.0810	 3268.00	 3305.88	-1415.22	 2790.04
     21.1070	 3326.00	 3309.05	-1360.39	 2792.90
     21.1330	 3313.00	 3312.22	-1376.56	 2795.76
     21.1590	 3310.00	 3315.40	-1382.74	 2798.61
     21.1850	 3189.00	 3318.58	-1506.92	 2801.45
     21.2110	 3348.00	 3321.77	-1351.10	 2804.29
     21.2370	 3277.00	 3324.95	-1425.29	 2807.12
     21.2630	 3305.00	 3328.15	-1400.48	 2809.94
     21.2890	 3363.00	 3331.34	-1345.67	 2812.76
     21.3150	 3375.00	 3334.53	-1336.87	 2815.56
     21.3410	 3380.00	 3337.72	-1335.06	 2818.36
     21.3670	 3311.00	 3340.92	-1407.26	 2821.14
     21.3930	 3291.00	 3344.11	-1430.45	 2823.92
     21.4190	 3299.00	 3347.31	-1425.65	 2826.68
     21.4450	 3310.00	 3350.50	-1417.84	 2829.44
     21.4710	 3276.00	 3353.69	-1455.03	 2832.18
     21.4970	 3360.00	 3356.88	-1374.22	 2834.91
     21.5230	 3322.00	 3360.07	-1415.41	 2837.62
     21.5490	 3403.00	 3363.85	-1338.19	 2840.32
     21.5750	 3404.00	 3367.03	-1340.37	 2843.01
     21.6010	 3379.00	 3370.21	-1368.54	 2845.69
     21.6270	 3384.00	 3373.38	-1366.72	 2848.35
     21.6530	 3388.00	 3376.85	-1366.18	 2850.99
     21.6790	 3346.00	 3380.01	-1411.35	 2853.62
     21.7050	 3388.00	 3383.17	-1372.50	 2856.24
     21.7310	 3370.00	 3386.32	-1393.65	 2858.83
     21.7570	 3374.00	 3389.46	-1392.80	 2861.41
     21.7830	 3354.00	 3392.60	-1415.94	 2863.97
     21.8090	 3324.00	 3395.73	-1449.06	 2866.52
     21.8350	 3356.00	 3398.85	-1420.19	 2869.04
     21.8610	 3402.00	 3401.96	-1377.30	 2871.55
     21.8870	 3389.00	 3405.06	-1393.40	 2874.04
     21.9130	 3373.00	 3408.16	-1412.50	 2876.51
     21.9390	 3425.00	 3411.24	-1363.58	 2878.95
     21.9650	 3436.00	 3414.32	-1355.65	 2881.38
     21.9910	 3393.00	 3417.38	-1401.72	 2883.79
     22.0170	 3413.00	 3420.43	-1384.77	 2886.17
     22.0430	 3483.00	 3423.47	-1317.81	 2888.53
     22.0690	 3505.00	 3426.50	-1298.83	 2890.87
     22.0950	 3432.00	 3429.51	-1374.85	 2893.19
     22.1210	 3394.00	 3432.52	-1415.85	 2895.49
     22.1470	 3439.00	 3435.51	-1373.84	 2897.76
     22.1730	 3414.00	 3438.48	-1401.82	 2900.00
     22.1990	 3414.00	 3441.44	-1404.78	 2902.23
     22.2250	 3434.00	 3444.39	-1387.73	 2904.42
     22.2510	 3400.00	 3447.32	-1424.66	 2906.60
     22.2770	 3448.00	 3450.24	-1379.58	 2908.74
     22.3030	 3425.00	 3453.14	-1405.48	 2910.86
     22.3290	 3367.00	 3456.03	-1466.37	 2912.96
     22.3550	 3405.00	 3458.90	-1431.24	 2915.02
     22.3810	 3461.00	 3461.75	-1378.09	 2917.07
     22.4070	 3487.00	 3464.59	-1354.92	 2919.08
     22.4330	 3463.00	 3467.41	-1381.74	 2921.06
     22.4590	 3451.00	 3470.21	-1396.55	 2923.02
     22.4850	 3406.00	 3472.99	-1444.33	 2924.95
     22.5110	 3543.00	 3475.76	-1310.09	 2926.85
     22.5370	 3467.00	 3478.50	-1388.84	 2928.72
     22.5630	 3502.00	 3481.23	-1356.57	 2930.55
     22.5890	 3539.00	 3483.94	-1322.28	 2932.36
     22.6150	 3466.00	 3486.63	-1397.97	 2934.14
     22.6410	 3324.00	 3489.30	-1542.64	 2935.89
     22.6670	 3427.00	 3491.95	-1442.29	 2937.61
     22.6930	 3510.00	 3494.58	-1361.91	 2939.29
     22.7190	 3556.00	 3497.19	-1318.52	 2940.95
     22.7450	 3486.00	 3499.77	-1391.11	 2942.57
     22.7710	 3460.00	 3502.34	-1419.68	 2944.16
     22.7970	 3548.00	 3504.88	-1334.22	 2945.72
     22.8230	 3457.00	 3507.41	-1427.74	 2947.24
     22.8490	 3556.00	 3509.91	-1331.24	 2948.73
     22.8750	 3532.00	 3512.39	-1357.72	 2950.19
     22.9010	 3521.00	 3514.84	-1371.18	 2951.61
     22.9270	 3527.00	 3517.27	-1367.61	 2953.00
     22.9530	 3516.00	 3519.69	-1381.02	 2954.35
     22.9790	 3468.00	 3522.07	-1431.41	 2955.67
     23.0050	 3508.00	 3524.44	-1393.77	 2956.95
     23.0310	 3540.00	 3526.78	-1364.11	 2958.20
     23.0570	 3465.00	 3529.09	-1441.43	 2959.41
     23.0830	 3424.00	 3531.39	-1484.72	 2960.58
     23.1090	 3569.00	 3533.65	-1341.99	 2961.72
     23.1350	 3550.00	 3535.90	-1363.23	 2962.83
     23.1610	 3564.00	 3538.12	-1351.45	 2963.89
     23.1870	 3545.00	 3540.31	-1372.65	 2964.92
     23.2130	 3610.00	 3542.48	-1309.82	 2965.91
     23.2390	 3605.00	 3544.63	-1316.96	 2966.87
     23.2650	 3534.00	 3546.75	-1390.08	 2967.78
     23.2910	 3510.00	 3548.84	-1416.18	 2968.66
     23.3170	 3570.00	 3550.91	-1358.25	 2969.50
     23.3430	 3567.00	 3552.95	-1363.29	 2970.30
     23.3690	 3534.00	 3554.97	-1398.31	 2971.06
     23.3950	 3525.00	 3556.96	-1409.30	 2971.78
     23.4210	 3588.00	 3558.93	-1348.26	 2972.47
     23.4470	 3551.00	 3560.86	-1387.20	 2973.11
     23.4730	 3583.00	 3562.78	-1357.11	 2973.71
     23.4990	 3668.00	 3564.66	-1274.00	 2974.28
     23.5250	 3602.00	 3566.52	-1341.86	 2974.80
     23.5510	 3589.00	 3568.36	-1356.70	 2975.29
     23.5770	 3558.00	 3570.17	-1389.50	 2975.73
     23.6030	 3495.00	 3571.95	-1454.28	 2976.13
     23.6290	 3653.00	 3573.70	-1298.04	 2976.49
     23.6550	 3521.00	 3575.43	-1431.76	 2976.81
     23.6810	 3456.00	 3577.13	-1498.46	 2977.09
     23.7070	 3536.00	 3578.80	-1420.14	 2977.33
     23.7330	 3661.00	 3580.45	-1296.78	 2977.53
     23.7590	 3672.00	 3582.07	-1287.40	 2977.68
     23.7850	 3601.00	 3583.66	-1359.99	 2977.80
     23.8110	 3665.00	 3585.22	-1297.56	 2977.87
     23.8370	 3626.00	 3586.76	-1338.10	 2977.89
     23.8630	 3584.00	 3588.27	-1381.61	 2977.88
     23.8890	 3627.00	 3589.76	-1340.10	 2977.82
     23.9150	 3564.00	 3591.22	-1404.55	 2977.72
     23.9410	 3622.00	 3592.65	-1347.98	 2977.58
     23.9670	 3677.00	 3594.05	-1294.39	 2977.40
     23.9930	 3642.00	 3595.43	-1330.76	 2977.17
     24.0190	 3631.00	 3596.78	-1343.11	 2976.90
     24.0450	 3681.00	 3598.10	-1294.44	 2976.58
     24.0710	 3606.00	 3599.39	-1370.73	 2976.22
     24.0970	 3637.00	 3600.66	-1341.00	 2975.82
     24.1230	 3647.00	 3601.91	-1332.24	 2975.38
     24.1490	 3664.00	 3603.12	-1316.46	 2974.89
     24.1750	 3633.00	 3604.31	-1348.65	 2974.36
     24.2010	 3700.00	 3605.48	-1282.81	 2973.78
     24.2270	 3658.00	 3606.61	-1325.95	 2973.16
     24.2530	 3582.00	 3607.72	-1403.06	 2972.49
     24.2790	 3637.00	 3608.81	-1349.14	 2971.78
     24.3050	 3604.00	 3609.87	-1383.20	 2971.03
     24.3310	 3627.00	 3610.90	-1361.23	 2970.23
     24.3570	 3610.00	 3611.90	-1379.24	 2969.39
     24.3830	 3547.00	 3612.89	-1443.22	 2968.50
     24.4090	 3591.00	 3613.84	-1400.18	 2967.57
     24.4350	 3597.00	 3614.77	-1395.11	 2966.60
     24.4610	 3620.00	 3615.68	-1373.01	 2965.58
     24.4870	 3619.00	 3616.56	-1374.89	 2964.51
     24.5130	 3605.00	 3617.41	-1389.75	 2963.40
     24.5390	 3647.00	 3618.24	-1348.58	 2962.25
     24.5650	 3656.00	 3619.05	-1340.39	 2961.05
     24.5910	 3667.00	 3619.83	-1330.17	 2959.80
     24.6170	 3614.00	 3620.59	-1383.93	 2958.51
     24.6430	 3581.00	 3621.33	-1417.66	 2957.18
     24.6690	 3615.00	 3622.04	-1384.37	 2955.80
     24.6950	 3598.00	 3622.72	-1402.06	 2954.38
     24.7210	 3564.00	 3623.39	-1436.72	 2952.91
     24.7470	 3589.00	 3624.03	-1412.37	 2951.40
     24.7730	 3586.00	 3624.65	-1415.99	 2949.84
     24.7990	 3580.00	 3625.24	-1422.58	 2948.23
     24.8250	 3632.00	 3625.82	-1371.16	 2946.59
     24.8510	 3589.00	 3626.37	-1414.71	 2944.89
     24.8770	 3617.00	 3626.90	-1387.24	 2943.15
     24.9030	 3659.00	 3627.41	-1345.75	 2941.37
     24.9290	 3613.00	 3627.90	-1392.24	 2939.54
     24.9550	 3626.00	 3628.37	-1379.71	 2937.67
     24.9810	 3644.00	 3628.82	-1362.16	 2935.75
     25.0070	 3603.00	 3629.25	-1403.58	 2933.79
     25.0330	 3580.00	 3629.66	-1426.99	 2931.78
     25.0590	 3625.00	 3630.04	-1382.38	 2929.73
     25.0850	 3695.00	 3630.42	-1312.75	 2927.63
     25.1110	 3716.00	 3630.77	-1292.10	 2925.49
     25.1370	 3708.00	 3631.10	-1300.44	 2923.31
     25.1630	 3696.00	 3631.42	-1312.75	 2921.08
     25.1890	 3713.00	 3631.71	-1296.05	 2918.80
     25.2150	 3734.00	 3632.00	-1275.33	 2916.48
     25.2410	 3614.00	 3632.26	-1395.60	 2914.12
     25.2670	 3614.00	 3632.51	-1395.85	 2911.71
     25.2930	 3686.00	 3632.74	-1324.08	 2909.26
     25.3190	 3698.00	 3632.96	-1312.30	 2906.76
     25.3450	 3685.00	 3633.16	-1325.50	 2904.22
     25.3710	 3626.00	 3633.35	-1384.69	 2901.64
     25.3970	 3713.00	 3633.52	-1297.86	 2899.01
     25.4230	 3612.00	 3633.68	-1399.02	 2896.34
     25.4490	 3635.00	 3633.83	-1376.17	 2893.62
     25.4750	 3642.00	 3633.97	-1369.30	 2890.86
     25.5010	 3619.00	 3634.09	-1392.43	 2888.06
     25.5270	 3604.00	 3634.20	-1407.54	 2885.21
     25.5530	 3638.00	 3634.30	-1373.64	 2882.32
     25.5790	 3559.00	 3634.39	-1452.73	 2879.39
     25.6050	 3653.00	 3634.47	-1358.80	 2876.41
     25.6310	 3638.00	 3634.54	-1373.87	 2873.39
     25.6570	 3619.00	 3634.60	-1392.94	 2870.33
     25.6830	 3597.00	 3634.65	-1414.99	 2867.23
     25.7090	 3549.00	 3634.70	-1463.03	 2864.08
     25.7350	 3596.00	 3634.73	-1416.07	 2860.89
     25.7610	 3697.00	 3634.76	-1315.10	 2857.66
     25.7870	 3736.00	 3634.79	-1276.13	 2854.39
     25.8130	 3574.00	 3634.81	-1438.15	 2851.07
     25.8390	 3543.00	 3634.82	-1469.16	 2847.71
     25.8650	 3666.00	 3634.83	-1346.17	 2844.31
     25.8910	 3652.00	 3634.84	-1360.18	 2840.87
     25.9170	 3527.00	 3634.84	-1485.18	 2837.39
     25.9430	 3583.00	 3634.85	-1429.18	 2833.86
     25.9690	 3614.00	 3634.84	-1398.18	 2830.30
     25.9950	 3572.00	 3634.84	-1440.18	 2826.69
     26.0210	 3629.00	 3634.84	-1383.18	 2823.04
     26.0470	 3525.00	 3634.84	-1487.18	 2819.35
     26.0730	 3675.00	 3634.84	-1337.18	 2815.63
     26.0990	 3587.00	 3634.84	-1425.18	 2811.86
     26.1250	 3574.00	 3634.85	-1438.18	 2808.05
     26.1510	 3673.00	 3634.85	-1339.19	 2804.20
     26.1770	 3585.00	 3634.87	-1427.20	 2800.31
     26.2030	 3588.00	 3634.88	-1424.22	 2796.38
     26.2290	 3621.00	 3634.91	-1391.24	 2792.41
     26.2550	 3578.00	 3634.93	-1434.27	 2788.40
     26.2810	 3664.00	 3634.97	-1348.31	 2784.36
     26.3070	 3657.00	 3635.01	-1355.35	 2780.27
     26.3330	 3774.00	 3635.06	-1238.40	 2776.15
     26.3590	 3600.00	 3635.12	-1412.46	 2771.98
     26.3850	 3507.00	 3635.19	-1505.53	 2767.78
     26.4110	 3589.00	 3635.27	-1423.61	 2763.54
     26.4370	 3611.00	 3635.37	-1401.71	 2759.27
     26.4630	 3546.00	 3635.47	-1466.81	 2754.95
     26.4890	 3595.00	 3635.59	-1417.93	 2750.60
     26.5150	 3627.00	 3635.73	-1386.06	 2746.21
     26.5410	 3718.00	 3635.88	-1295.21	 2741.78
     26.5670	 3624.00	 3636.04	-1389.38	 2737.32
     26.5930	 3629.00	 3636.22	-1384.56	 2732.82
     26.6190	 3783.00	 3636.42	-1230.76	 2728.28
     26.6450	 3679.00	 3636.64	-1334.98	 2723.71
     26.6710	 3655.00	 3636.88	-1359.21	 2719.10
     26.6970	 3655.00	 3637.13	-1359.47	 2714.46
     26.7230	 3660.00	 3637.41	-1354.75	 2709.78
     26.7490	 3637.00	 3637.71	-1378.05	 2705.06
     26.7750	 3636.00	 3638.04	-1379.37	 2700.31
     26.8010	 3554.00	 3638.38	-1461.72	 2695.53
     26.8270	 3592.00	 3638.76	-1424.09	 2690.71
     26.8530	 3582.00	 3639.15	-1434.49	 2685.85
     26.8790	 3607.00	 3639.58	-1409.92	 2680.97
     26.9050	 3630.00	 3640.03	-1387.37	 2676.04
     26.9310	 3618.00	 3640.51	-1399.85	 2671.09
     26.9570	 3623.00	 3641.02	-1395.36	 2666.10
     26.9830	 3593.00	 3641.56	-1425.90	 2661.08
     27.0090	 3569.00	 3642.13	-1450.47	 2656.02
     27.0350	 3593.00	 3642.73	-1427.07	 2650.94
     27.0610	 3604.00	 3643.37	-1416.71	 2645.82
     27.0870	 3622.00	 3644.04	-1399.38	 2640.67
     27.1130	 3590.00	 3644.74	-1432.08	 2635.48
     27.1390	 3580.00	 3645.48	-1442.82	 2630.27
     27.1650	 3658.00	 3646.26	-1365.60	 2625.02
     27.1910	 3636.00	 3647.08	-1388.41	 2619.74
     27.2170	 3636.00	 3647.93	-1389.26	 2614.44
     27.2430	 3681.00	 3648.82	-1345.16	 2609.10
     27.2690	 3653.00	 3649.75	-1374.09	 2603.73
     27.2950	 3643.00	 3650.72	-1385.06	 2598.33
     27.3210	 3640.00	 3651.74	-1389.07	 2592.90
     27.3470	 3624.00	 3652.79	-1406.13	 2587.45
     27.3730	 3654.00	 3653.89	-1377.23	 2581.96
     27.3990	 3684.00	 3655.03	-1348.37	 2576.44
     27.4250	 3703.00	 3656.22	-1330.56	 2570.90
     27.4510	 3716.00	 3657.46	-1318.79	 2565.33
     27.4770	 3665.00	 3658.74	-1371.07	 2559.73
     27.5030	 3658.00	 3660.06	-1379.40	 2554.10
     27.5290	 3681.00	 3661.44	-1357.77	 2548.44
     27.5550	 3672.00	 3662.86	-1368.20	 2542.76
     27.5810	 3578.00	 3664.33	-1463.67	 2537.05
     27.6070	 3492.00	 3665.85	-1551.19	 2531.31
     27.6330	 3595.00	 3667.42	-1449.76	 2525.55
     27.6590	 3683.00	 3669.04	-1363.38	 2519.76
     27.6850	 3794.00	 3670.71	-1254.05	 2513.95
     27.7110	 3775.00	 3672.44	-1274.77	 2508.11
     27.7370	 3678.00	 3674.21	-1373.55	 2502.25
     27.7630	 3650.00	 3676.04	-1403.38	 2496.36
     27.7890	 3737.00	 3677.92	-1318.26	 2490.45
     27.8150	 3714.00	 3679.85	-1343.19	 2484.51
     27.8410	 3664.00	 3681.84	-1395.17	 2478.55
     27.8670	 3649.00	 3683.87	-1412.21	 2472.56
     27.8930	 3725.00	 3685.97	-1338.30	 2466.55
     27.9190	 3772.00	 3688.11	-1293.45	 2460.52
     27.9450	 3756.00	 3690.31	-1311.64	 2454.47
     27.9710	 3797.00	 3692.56	-1272.89	 2448.39
     27.9970	 3753.00	 3694.86	-1319.20	 2442.29
     28.0230	 3749.00	 3697.22	-1325.55	 2436.17
     28.0490	 3714.00	 3699.62	-1362.96	 2430.03
     28.0750	 3747.00	 3702.08	-1332.42	 2423.87
     28.1010	 3717.00	 3704.59	-1364.93	 2417.68
     28.1270	 3668.00	 3707.16	-1416.49	 2411.48
     28.1530	 3721.00	 3709.77	-1366.10	 2405.26
     28.1790	 3862.00	 3712.43	-1227.76	 2399.01
     28.2050	 3792.00	 3715.14	-1300.47	 2392.75
     28.2310	 3670.00	 3717.89	-1425.23	 2386.46
     28.2570	 3803.00	 3720.70	-1295.04	 2380.16
     28.2830	 3788.00	 3723.55	-1312.88	 2373.84
     28.3090	 3758.00	 3726.44	-1345.78	 2367.50
     28.3350	 3699.00	 3729.38	-1407.71	 2361.14
     28.3610	 3667.00	 3732.35	-1442.69	 2354.77
     28.3870	 3697.00	 3735.37	-1415.71	 2348.38
     28.4130	 3768.00	 3738.43	-1347.76	 2341.97
     28.4390	 3748.00	 3741.52	-1370.86	 2335.54
     28.4650	 3807.00	 3744.64	-1314.98	 2329.10
     28.4910	 3649.00	 3747.80	-1476.14	 2322.64
     28.5170	 3764.00	 3750.99	-1364.33	 2316.17
     28.5430	 3839.00	 3754.20	-1292.54	 2309.68
     28.5690	 3820.00	 3757.44	-1314.78	 2303.17
     28.5950	 3789.00	 3760.71	-1349.05	 2296.65
     28.6210	 3918.00	 3763.99	-1223.33	 2290.12
     28.6470	 3938.00	 3767.29	-1206.63	 2283.57
     28.6730	 3810.00	 3770.60	-1337.94	 2277.01
     28.6990	 3908.00	 3773.93	-1243.27	 2270.43
     28.7250	 3885.00	 3777.26	-1269.60	 2263.84
     28.7510	 3864.00	 3780.60	-1293.94	 2257.24
     28.7770	 3803.00	 3783.93	-1358.27	 2250.62
     28.8030	 3939.00	 3787.27	-1225.61	 2244.00
     28.8290	 3861.00	 3790.60	-1306.93	 2237.36
     28.8550	 3824.00	 3793.91	-1347.25	 2230.71
     28.8810	 3868.00	 3797.21	-1306.55	 2224.05
     28.9070	 3655.00	 3800.50	-1522.83	 2217.37
     28.9330	 3771.00	 3803.76	-1410.09	 2210.69
     28.9590	 3791.00	 3806.99	-1393.32	 2204.00
     28.9850	 3768.00	 3810.19	-1419.53	 2197.29
     29.0110	 3750.00	 3813.35	-1440.69	 2190.58
     29.0370	 3764.00	 3816.47	-1429.81	 2183.86
     29.0630	 3797.00	 3819.55	-1399.89	 2177.13
     29.0890	 3765.00	 3822.57	-1434.91	 2170.38
     29.1150	 3894.00	 3825.54	-1308.88	 2163.64
     29.1410	 3871.00	 3828.45	-1334.79	 2156.88
     29.1670	 3810.00	 3831.29	-1398.63	 2150.11
     29.1930	 3935.00	 3834.06	-1276.40	 2143.34
     29.2190	 3888.00	 3836.76	-1326.10	 2136.56
     29.2450	 3828.00	 3839.37	-1388.71	 2129.78
     29.2710	 3924.00	 3841.90	-1295.24	 2122.98
     29.2970	 3875.00	 3844.34	-1346.68	 2116.18
     29.3230	 3859.00	 3846.68	-1365.02	 2109.38
     29.3490	 3822.00	 3848.92	-1404.26	 2102.57
     29.3750	 3796.00	 3851.05	-1432.39	 2095.75
     29.4010	 3858.00	 3853.07	-1372.41	 2088.93
     29.4270	 3862.00	 3854.98	-1370.32	 2082.11
     29.4530	 3850.00	 3856.76	-1384.10	 2075.28
     29.4790	 3962.00	 3858.42	-1273.76	 2068.45
     29.5050	 3938.00	 3859.95	-1299.29	 2061.61
     29.5310	 3867.00	 3861.35	-1371.68	 2054.77
     29.5570	 3842.00	 3862.60	-1397.94	 2047.93
     29.5830	 3878.00	 3863.71	-1363.05	 2041.08
     29.6090	 3873.00	 3864.68	-1369.02	 2034.23
     29.6350	 3777.00	 3865.50	-1465.83	 2027.39
     29.6610	 3815.00	 3866.16	-1428.50	 2020.53
     29.6870	 3963.00	 3866.66	-1281.00	 2013.68
     29.7130	 3933.00	 3867.01	-1311.35	 2006.83
     29.7390	 3868.00	 3867.19	-1376.53	 1999.97
     29.7650	 3882.00	 3867.21	-1362.54	 1993.12
     29.7910	 3855.00	 3867.06	-1389.39	 1986.26
     29.8170	 3800.00	 3866.73	-1444.07	 1979.41
     29.8430	 3891.00	 3866.24	-1352.58	 1972.55
     29.8690	 3935.00	 3865.58	-1307.92	 1965.70
     29.8950	 3883.00	 3864.74	-1359.08	 1958.85
     29.9210	 3883.00	 3863.73	-1358.07	 1952.00
     29.9470	 3889.00	 3862.54	-1350.88	 1945.15
     29.9730	 3850.00	 3861.18	-1388.52	 1938.30
     29.9990	 3811.00	 3859.65	-1425.99	 1931.45
     30.0250	 3887.00	 3857.94	-1348.28	 1924.61
     30.0510	 3847.00	 3856.06	-1386.40	 1917.77
     30.0770	 3720.00	 3854.01	-1511.34	 1910.94
     30.1030	 3796.00	 3851.78	-1433.12	 1904.10
     30.1290	 3844.00	 3849.39	-1382.73	 1897.28
     30.1550	 3813.00	 3846.84	-1411.18	 1890.45
     30.1810	 3823.00	 3844.12	-1398.46	 1883.63
     30.2070	 3829.00	 3841.24	-1389.58	 1876.81
     30.2330	 3814.00	 3838.21	-1401.55	 1870.01
     30.2590	 3776.00	 3835.03	-1436.36	 1863.20
     30.2850	 3821.00	 3831.69	-1388.03	 1856.40
     30.3110	 3852.00	 3828.21	-1353.55	 1849.61
     30.3370	 3825.00	 3824.59	-1376.93	 1842.82
     30.3630	 3854.00	 3820.84	-1344.18	 1836.04
     30.3890	 3806.00	 3816.96	-1388.29	 1829.27
     30.4150	 3814.00	 3812.95	-1376.28	 1822.50
     30.4410	 3842.00	 3808.82	-1344.16	 1815.74
     30.4670	 3836.00	 3804.58	-1345.92	 1808.99
     30.4930	 3837.00	 3800.23	-1340.57	 1802.25
     30.5190	 3851.00	 3795.78	-1322.12	 1795.51
     30.5450	 3777.00	 3791.24	-1391.58	 1788.79
     30.5710	 3787.00	 3786.60	-1376.94	 1782.07
     30.5970	 3857.00	 3781.89	-1302.23	 1775.36
     30.6230	 3780.00	 3777.10	-1374.44	 1768.66
     30.6490	 3760.00	 3772.25	-1389.58	 1761.97
     30.6750	 3737.00	 3767.33	-1407.67	 1755.29
     30.7010	 3817.00	 3762.36	-1322.70	 1748.62
     30.7270	 3827.00	 3757.34	-1307.68	 1741.96
     30.7530	 3714.00	 3752.29	-1415.62	 1735.31
     30.7790	 3833.00	 3747.20	-1291.53	 1728.68
     30.8050	 3755.00	 3742.09	-1364.42	 1722.05
     30.8310	 3755.00	 3736.96	-1359.29	 1715.44
     30.8570	 3668.00	 3731.82	-1441.16	 1708.84
     30.8830	 3746.00	 3726.68	-1358.02	 1702.25
     30.9090	 3807.00	 3721.54	-1291.88	 1695.67
     30.9350	 3715.00	 3716.42	-1378.76	 1689.11
     30.9610	 3684.00	 3711.32	-1404.66	 1682.55
     30.9870	 3628.00	 3706.24	-1455.58	 1676.02
     31.0130	 3638.00	 3701.20	-1440.54	 1669.49
     31.0390	 3617.00	 3696.21	-1456.54	 1662.98
     31.0650	 3727.00	 3691.26	-1341.59	 1656.48
     31.0910	 3625.00	 3686.36	-1438.70	 1650.00
     31.1170	 3654.00	 3681.53	-1404.87	 1643.53
     31.1430	 3654.00	 3676.77	-1400.11	 1637.08
     31.1690	 3660.00	 3672.09	-1389.42	 1630.64
     31.1950	 3621.00	 3667.48	-1423.82	 1624.22
     31.2210	 3637.00	 3662.97	-1403.31	 1617.81
     31.2470	 3669.00	 3658.56	-1366.90	 1611.42
     31.2730	 3680.00	 3654.24	-1351.58	 1605.05
     31.2990	 3736.00	 3650.04	-1291.38	 1598.69
     31.3250	 3611.00	 3645.95	-1412.29	 1592.34
     31.3510	 3595.00	 3641.98	-1424.32	 1586.02
     31.3770	 3653.00	 3638.14	-1362.48	 1579.71
     31.4030	 3677.00	 3634.43	-1334.77	 1573.42
     31.4290	 3664.00	 3630.86	-1344.20	 1567.15
     31.4550	 3636.00	 3627.43	-1368.77	 1560.89
     31.4810	 3679.00	 3624.15	-1322.49	 1554.65
     31.5070	 3649.00	 3621.03	-1349.37	 1548.43
     31.5330	 3652.00	 3618.06	-1343.40	 1542.23
     31.5590	 3627.00	 3615.26	-1365.60	 1536.05
     31.5850	 3596.00	 3612.63	-1393.96	 1529.89
     31.6110	 3584.00	 3610.17	-1403.51	 1523.74
     31.6370	 3725.00	 3607.89	-1260.23	 1517.62
     31.6630	 3546.00	 3605.79	-1437.13	 1511.51
     31.6890	 3642.00	 3603.89	-1339.22	 1505.43
     31.7150	 3674.00	 3602.17	-1305.50	 1499.36
     31.7410	 3619.00	 3600.65	-1358.98	 1493.32
     31.7670	 3653.00	 3599.32	-1323.66	 1487.29
     31.7930	 3627.00	 3598.21	-1348.54	 1481.29
     31.8190	 3655.00	 3597.30	-1319.63	 1475.31
     31.8450	 3582.00	 3596.60	-1391.93	 1469.35
     31.8710	 3593.00	 3596.11	-1380.45	 1463.41
     31.8970	 3713.00	 3595.85	-1260.19	 1457.49
     31.9230	 3621.00	 3595.81	-1352.14	 1451.59
     31.9490	 3583.00	 3595.99	-1390.33	 1445.72
     31.9750	 3618.00	 3596.40	-1355.74	 1439.87
     32.0010	 3653.00	 3597.05	-1321.39	 1434.04
     32.0270	 3613.00	 3597.93	-1362.27	 1428.23
     32.0530	 3620.00	 3599.05	-1356.38	 1422.44
     32.0790	 3590.00	 3600.41	-1387.74	 1416.68
     32.1050	 3579.00	 3602.01	-1400.35	 1410.95
     32.1310	 3548.00	 3603.86	-1433.20	 1405.23
     32.1570	 3606.00	 3605.96	-1377.30	 1399.54
     32.1830	 3646.00	 3608.31	-1339.65	 1393.87
     32.2090	 3693.00	 3610.92	-1295.26	 1388.23
     32.2350	 3628.00	 3613.78	-1363.12	 1382.61
     32.2610	 3480.00	 3616.91	-1514.25	 1377.02
     32.2870	 3536.00	 3620.29	-1461.63	 1371.45
     32.3130	 3537.00	 3623.95	-1464.28	 1365.90
     32.3390	 3564.00	 3627.86	-1441.20	 1360.38
     32.3650	 3579.00	 3632.05	-1430.38	 1354.89
     32.3910	 3545.00	 3636.50	-1468.84	 1349.42
     32.4170	 3592.00	 3641.23	-1426.57	 1343.97
     32.4430	 3648.00	 3646.23	-1375.57	 1338.56
     32.4690	 3579.00	 3651.51	-1449.85	 1333.16
     32.4950	 3557.00	 3657.07	-1477.40	 1327.80
     32.5210	 3551.00	 3662.90	-1489.24	 1322.46
     32.5470	 3540.00	 3669.02	-1506.36	 1317.14
     32.5730	 3621.00	 3675.42	-1431.76	 1311.85
     32.5990	 3620.00	 3682.10	-1439.44	 1306.59
     32.6250	 3607.00	 3689.07	-1459.41	 1301.36
     32.6510	 3604.00	 3696.33	-1469.66	 1296.15
     32.6770	 3619.00	 3703.87	-1462.20	 1290.97
     32.7030	 3707.00	 3711.70	-1382.03	 1285.82
     32.7290	 3741.00	 3719.82	-1356.15	 1280.69
     32.7550	 3735.00	 3728.23	-1370.56	 1275.60
     32.7810	 3681.00	 3736.93	-1433.26	 1270.53
     32.8070	 3686.00	 3745.92	-1437.25	 1265.48
     32.8330	 3730.00	 3755.20	-1402.54	 1260.47
     32.8590	 3662.00	 3764.78	-1480.11	 1255.48
     32.8850	 3622.00	 3774.65	-1529.98	 1250.53
     32.9110	 3693.00	 3784.80	-1469.14	 1245.60
     32.9370	 3657.00	 3795.26	-1515.59	 1240.70
     32.9630	 3684.00	 3806.00	-1499.34	 1235.83
     32.9890	 3657.00	 3817.04	-1537.38	 1230.99
     33.0150	 3692.00	 3828.36	-1513.70	 1226.17
     33.0410	 3732.00	 3839.98	-1485.32	 1221.39
     33.0670	 3675.00	 3851.89	-1554.22	 1216.63
     33.0930	 3780.00	 3864.08	-1461.42	 1211.91
     33.1190	 3701.00	 3876.56	-1552.90	 1207.21
     33.1450	 3797.00	 3889.33	-1469.67	 1202.54
     33.1710	 3784.00	 3902.38	-1495.72	 1197.91
     33.1970	 3771.00	 3915.71	-1522.05	 1193.30
     33.2230	 3784.00	 3929.32	-1522.66	 1188.72
     33.2490	 3879.00	 3943.21	-1441.55	 1184.18
     33.2750	 3828.00	 3957.38	-1506.71	 1179.66
     33.3010	 3797.00	 3971.81	-1552.15	 1175.18
     33.3270	 3867.00	 3986.52	-1496.85	 1170.72
     33.3530	 3845.00	 4001.48	-1533.82	 1166.30
     33.3790	 3862.00	 4016.72	-1532.05	 1161.90
     33.4050	 3878.00	 4032.20	-1531.54	 1157.54
     33.4310	 3891.00	 4047.94	-1534.28	 1153.21
     33.4570	 4045.00	 4063.93	-1396.27	 1148.91
     33.4830	 3939.00	 4080.16	-1518.50	 1144.64
     33.5090	 3900.00	 4096.63	-1573.97	 1140.40
     33.5350	 3970.00	 4113.33	-1520.67	 1136.19
     33.5610	 4037.00	 4130.26	-1470.60	 1132.01
     33.5870	 4058.00	 4147.41	-1466.75	 1127.87
     33.6130	 4017.00	 4164.77	-1525.10	 1123.76
     33.6390	 4022.00	 4182.33	-1537.67	 1119.67
     33.6650	 4167.00	 4200.10	-1410.44	 1115.62
     33.6910	 4078.00	 4218.05	-1517.39	 1111.61
     33.7170	 4117.00	 4236.19	-1496.52	 1107.62
     33.7430	 4090.00	 4254.50	-1541.83	 1103.67
     33.7690	 4103.00	 4272.97	-1547.30	 1099.75
     33.7950	 4116.00	 4291.59	-1552.93	 1095.86
     33.8210	 4241.00	 4310.36	-1446.69	 1092.00
     33.8470	 4259.00	 4329.26	-1447.59	 1088.17
     33.8730	 4191.00	 4348.28	-1534.62	 1084.38
     33.8990	 4264.00	 4367.41	-1480.75	 1080.62
     33.9250	 4260.00	 4386.64	-1503.97	 1076.89
     33.9510	 4315.00	 4405.95	-1468.29	 1073.20
     33.9770	 4368.00	 4425.34	-1434.67	 1069.54
     34.0030	 4418.00	 4444.78	-1404.12	 1065.91
     34.0290	 4371.00	 4464.26	-1470.60	 1062.31
     34.0550	 4408.00	 4483.78	-1453.12	 1058.75
     34.0810	 4405.00	 4503.31	-1475.65	 1055.21
     34.1070	 4372.00	 4522.84	-1528.18	 1051.72
     34.1330	 4443.00	 4542.35	-1476.69	 1048.25
     34.1590	 4640.00	 4561.83	-1299.17	 1044.82
     34.1850	 4573.00	 4581.26	-1385.60	 1041.42
     34.2110	 4549.00	 4600.62	-1428.96	 1038.05
     34.2370	 4615.00	 4619.90	-1382.23	 1034.72
     34.2630	 4592.00	 4639.07	-1424.40	 1031.42
     34.2890	 4657.00	 4658.12	-1378.45	 1028.15
     34.3150	 4710.00	 4677.02	-1344.36	 1024.92
     34.3410	 4698.00	 4695.77	-1375.11	 1021.72
     34.3670	 4725.00	 4714.34	-1366.67	 1018.56
     34.3930	 4772.00	 4732.70	-1338.04	 1015.42
     34.4190	 4813.00	 4750.85	-1315.18	 1012.32
     34.4450	 4945.00	 4768.75	-1201.09	 1009.26
     34.4710	 4923.00	 4786.40	-1240.73	 1006.22
     34.4970	 4916.00	 4803.76	-1265.09	 1003.23
     34.5230	 4913.00	 4820.81	-1285.15	 1000.26
     34.5490	 4891.00	 4837.54	-1323.88	  997.33
     34.5750	 4885.00	 4853.93	-1346.27	  994.43
     34.6010	 5068.00	 4869.95	-1179.29	  991.57
     34.6270	 5020.00	 4885.58	-1242.91	  988.74
     34.6530	 5092.00	 4900.79	-1186.13	  985.94
     34.6790	 5008.00	 4915.58	-1284.92	  983.17
     34.7050	 5061.00	 4929.92	-1246.26	  980.44
     34.7310	 5290.00	 4943.78	-1031.12	  977.75
     34.7570	 5278.00	 4957.15	-1056.49	  975.09
     34.7830	 5249.00	 4970.01	-1098.35	  972.46
     34.8090	 5182.00	 4982.33	-1177.67	  969.86
     34.8350	 5219.00	 4994.10	-1152.44	  967.30
     34.8610	 5298.00	 5005.30	-1084.64	  964.77
     34.8870	 5338.00	 5015.91	-1055.25	  962.28
     34.9130	 5258.00	 5025.91	-1145.25	  959.82
     34.9390	 5237.00	 5035.28	-1175.62	  957.39
     34.9650	 5364.00	 5044.01	-1057.35	  955.00
     34.9910	 5475.00	 5052.09	 -954.42	  952.64
     35.0170	 5505.00	 5059.49	 -931.82	  950.31
     35.0430	 5457.00	 5066.20	 -986.53	  948.02
     35.0690	 5367.00	 5072.21	-1082.54	  945.76
     35.0950	 5271.00	 5077.50	-1183.84	  943.54
     35.1210	 5332.00	 5082.07	-1127.41	  941.35
     35.1470	 5440.00	 5085.90	-1023.24	  939.19
     35.1730	 5420.00	 5088.99	-1046.32	  937.07
     35.1990	 5438.00	 5091.32	-1030.65	  934.98
     35.2250	 5453.00	 5092.88	-1017.22	  932.92
     35.2510	 5435.00	 5093.68	-1036.01	  930.90
     35.2770	 5438.00	 5093.70	-1033.04	  928.91
     35.3030	 5353.00	 5092.94	-1117.28	  926.95
     35.3290	 5326.00	 5091.40	-1142.73	  925.03
     35.3550	 5393.00	 5089.07	-1073.41	  923.14
     35.3810	 5377.00	 5085.96	-1086.29	  921.28
     35.4070	 5376.00	 5082.06	-1083.39	  919.46
     35.4330	 5350.00	 5077.37	-1104.71	  917.67
     35.4590	 5326.00	 5071.91	-1123.24	  915.91
     35.4850	 5340.00	 5065.66	-1103.00	  914.19
     35.5110	 5276.00	 5058.64	-1159.98	  912.50
     35.5370	 5243.00	 5050.86	-1185.19	  910.85
     35.5630	 5270.00	 5042.31	-1149.64	  909.22
     35.5890	 5278.00	 5033.01	-1132.34	  907.63
     35.6150	 5220.00	 5022.96	-1180.30	  906.07
     35.6410	 5216.00	 5012.19	-1173.52	  904.55
     35.6670	 5132.00	 5000.68	-1246.02	  903.06
     35.6930	 5033.00	 4988.47	-1332.81	  901.60
     35.7190	 5050.00	 4975.56	-1302.90	  900.17
     35.7450	 4947.00	 4961.97	-1392.31	  898.78
     35.7710	 4883.00	 4947.71	-1442.05	  897.42
     35.7970	 4825.00	 4932.79	-1485.13	  896.09
     35.8230	 4769.00	 4917.23	-1525.57	  894.80
     35.8490	 4762.00	 4901.06	-1516.40	  893.53
     35.8750	 4752.00	 4884.28	-1509.62	  892.30
     35.9010	 4751.00	 4866.91	-1493.25	  891.10
     35.9270	 4718.00	 4848.97	-1508.31	  889.94
     35.9530	 4677.00	 4830.49	-1530.83	  888.81
     35.9790	 4564.00	 4811.48	-1624.81	  887.70
     36.0050	 4581.00	 4791.95	-1588.29	  886.63
     36.0310	 4595.00	 4771.94	-1554.27	  885.60
     36.0570	 4498.00	 4751.45	-1630.79	  884.59
     36.0830	 4443.00	 4730.52	-1664.85	  883.62
     36.1090	 4544.00	 4709.15	-1542.49	  882.68
     36.1350	 4551.00	 4687.38	-1513.72	  881.77
     36.1610	 4400.00	 4665.22	-1642.56	  880.89
     36.1870	 4360.00	 4642.69	-1660.03	  880.04
     36.2130	 4495.00	 4619.82	-1502.15	  879.23
     36.2390	 4357.00	 4596.62	-1616.95	  878.44
     36.2650	 4254.00	 4573.11	-1696.45	  877.69
     36.2910	 4249.00	 4549.32	-1677.66	  876.97
     36.3170	 4209.00	 4525.27	-1693.60	  876.28
     36.3430	 4237.00	 4500.97	-1641.30	  875.62
     36.3690	 4271.00	 4476.45	-1582.78	  874.99
     36.3950	 4321.00	 4451.71	-1508.05	  874.40
     36.4210	 4243.00	 4426.80	-1561.13	  873.83
     36.4470	 4120.00	 4401.71	-1659.05	  873.29
     36.4730	 4215.00	 4376.48	-1538.82	  872.79
     36.4990	 4232.00	 4351.12	-1496.46	  872.31
     36.5250	 4244.00	 4325.64	-1458.98	  871.87
     36.5510	 4086.00	 4300.07	-1591.40	  871.46
     36.5770	 4177.00	 4274.42	-1474.76	  871.07
     36.6030	 4114.00	 4248.70	-1512.04	  870.72
     36.6290	 4118.00	 4222.94	-1482.28	  870.40
     36.6550	 4136.00	 4197.15	-1438.49	  870.10
     36.6810	 4027.00	 4171.35	-1521.68	  869.84
     36.7070	 4051.00	 4145.54	-1471.87	  869.60
     36.7330	 3964.00	 4119.74	-1533.08	  869.40
     36.7590	 4170.00	 4093.97	-1301.31	  869.22
     36.7850	 4131.00	 4068.24	-1314.58	  869.08
     36.8110	 4108.00	 4042.56	-1311.90	  868.96
     36.8370	 4006.00	 4016.95	-1388.29	  868.88
     36.8630	 3855.00	 3991.41	-1513.75	  868.82
     36.8890	 3925.00	 3965.96	-1418.30	  868.79
     36.9150	 3967.00	 3940.61	-1350.95	  868.79
     36.9410	 3811.00	 3915.37	-1481.70	  868.81
     36.9670	 3863.00	 3890.25	-1404.58	  868.87
     36.9930	 3948.00	 3865.25	-1294.58	  868.96
     37.0190	 3843.00	 3840.38	-1374.72	  869.07
     37.0450	 3770.00	 3815.67	-1423.00	  869.21
     37.0710	 3729.00	 3791.11	-1439.44	  869.38
     37.0970	 3713.00	 3766.70	-1431.04	  869.58
     37.1230	 3653.00	 3742.46	-1466.80	  869.80
     37.1490	 3704.00	 3718.40	-1391.74	  870.06
     37.1750	 3674.00	 3694.52	-1397.86	  870.34
     37.2010	 3571.00	 3670.83	-1477.17	  870.64
     37.2270	 3531.00	 3647.33	-1493.67	  870.98
     37.2530	 3453.00	 3624.03	-1548.36	  871.34
     37.2790	 3450.00	 3600.93	-1528.27	  871.73
     37.3050	 3465.00	 3578.04	-1490.37	  872.15
     37.3310	 3473.00	 3555.36	-1459.69	  872.59
     37.3570	 3433.00	 3532.89	-1477.23	  873.06
     37.3830	 3299.00	 3510.65	-1588.98	  873.56
     37.4090	 3316.00	 3488.62	-1549.96	  874.08
     37.4350	 3288.00	 3466.82	-1556.16	  874.63
     37.4610	 3303.00	 3445.25	-1519.59	  875.20
     37.4870	 3273.00	 3423.92	-1528.26	  875.80
     37.5130	 3211.00	 3402.81	-1569.15	  876.43
     37.5390	 3174.00	 3381.94	-1585.28	  877.08
     37.5650	 3155.00	 3361.31	-1583.64	  877.76
     37.5910	 3102.00	 3340.92	-1616.25	  878.46
     37.6170	 3059.00	 3320.76	-1639.10	  879.19
     37.6430	 3114.00	 3300.85	-1564.18	  879.95
     37.6690	 3088.00	 3281.17	-1570.51	  880.72
     37.6950	 3025.00	 3261.75	-1614.08	  881.53
     37.7210	 3011.00	 3242.56	-1608.90	  882.36
     37.7470	 3031.00	 3223.62	-1569.95	  883.21
     37.7730	 3050.00	 3204.92	-1532.26	  884.09
     37.7990	 2981.00	 3186.46	-1582.80	  884.99
     37.8250	 2977.00	 3168.25	-1568.59	  885.91
     37.8510	 3033.00	 3150.28	-1494.62	  886.86
     37.8770	 3002.00	 3132.56	-1507.90	  887.83
     37.9030	 2969.00	 3115.08	-1523.42	  888.83
     37.9290	 2897.00	 3097.84	-1578.18	  889.85
     37.9550	 2859.00	 3080.84	-1599.18	  890.89
     37.9810	 2921.00	 3064.09	-1520.43	  891.96
     38.0070	 2882.00	 3047.57	-1542.91	  893.05
     38.0330	 2847.00	 3031.29	-1561.63	  894.16
     38.0590	 2924.00	 3015.26	-1468.59	  895.30
     38.0850	 2925.00	 2999.46	-1451.79	  896.45
     38.1110	 2838.00	 2983.89	-1523.22	  897.63
     38.1370	 2863.00	 2968.56	-1482.89	  898.84
     38.1630	 2795.00	 2953.46	-1535.79	  900.06
     38.1890	 2856.00	 2938.59	-1459.93	  901.31
     38.2150	 2863.00	 2923.95	-1438.29	  902.57
     38.2410	 2890.00	 2909.54	-1396.88	  903.86
     38.2670	 2936.00	 2895.36	-1336.70	  905.17
     38.2930	 2890.00	 2881.41	-1368.74	  906.50
     38.3190	 2808.00	 2867.68	-1437.01	  907.86
     38.3450	 2847.00	 2854.17	-1384.50	  909.23
     38.3710	 2879.00	 2840.88	-1339.21	  910.63
     38.3970	 2791.00	 2827.81	-1414.14	  912.04
     38.4230	 2751.00	 2814.95	-1441.29	  913.48
     38.4490	 2753.00	 2802.32	-1426.65	  914.93
     38.4750	 2772.00	 2789.89	-1395.23	  916.41
     38.5010	 2773.00	 2777.68	-1382.02	  917.90
     38.5270	 2806.00	 2765.68	-1337.02	  919.42
     38.5530	 2780.00	 2753.89	-1351.22	  920.95
     38.5790	 2788.00	 2742.30	-1331.63	  922.51
     38.6050	 2751.00	 2730.92	-1357.25	  924.08
     38.6310	 2740.00	 2719.73	-1357.07	  925.67
     38.6570	 2813.00	 2708.75	-1273.09	  927.29
     38.6830	 2688.00	 2697.97	-1387.31	  928.92
     38.7090	 2676.00	 2687.39	-1388.73	  930.56
     38.7350	 2710.00	 2677.00	-1344.34	  932.23
     38.7610	 2779.00	 2666.80	-1265.14	  933.92
     38.7870	 2640.00	 2656.80	-1394.14	  935.62
     38.8130	 2693.00	 2646.99	-1331.32	  937.34
     38.8390	 2667.00	 2637.36	-1347.70	  939.08
     38.8650	 2663.00	 2627.92	-1342.26	  940.84
     38.8910	 2722.00	 2618.66	-1274.00	  942.61
     38.9170	 2720.00	 2609.59	-1266.93	  944.40
     38.9430	 2695.00	 2600.70	-1283.03	  946.21
     38.9690	 2605.00	 2591.98	-1364.32	  948.04
     38.9950	 2710.00	 2583.44	-1250.78	  949.88
     39.0210	 2687.00	 2575.08	-1265.42	  951.73
     39.0470	 2682.00	 2567.19	-1262.53	  953.61
     39.0730	 2569.00	 2559.17	-1367.51	  955.50
     39.0990	 2651.00	 2551.33	-1277.67	  957.40
     39.1250	 2628.00	 2543.65	-1292.99	  959.33
     39.1510	 2633.00	 2536.14	-1280.48	  961.26
     39.1770	 2593.00	 2528.80	-1313.14	  963.22
     39.2030	 2569.00	 2521.77	-1330.10	  965.18
     39.2290	 2641.00	 2514.75	-1251.09	  967.17
     39.2550	 2698.00	 2507.89	-1187.23	  969.17
     39.2810	 2693.00	 2501.19	-1185.53	  971.18
     39.3070	 2719.00	 2494.65	-1152.99	  973.21
     39.3330	 2597.00	 2488.27	-1268.61	  975.25
     39.3590	 2601.00	 2482.04	-1258.38	  977.30
     39.3850	 2572.00	 2475.97	-1281.30	  979.37
     39.4110	 2515.00	 2470.04	-1332.38	  981.46
     39.4370	 2596.00	 2464.27	-1245.61	  983.55
     39.4630	 2590.00	 2458.65	-1245.98	  985.66
     39.4890	 2624.00	 2453.17	-1206.51	  987.79
     39.5150	 2585.00	 2447.84	-1240.18	  989.92
     39.5410	 2493.00	 2442.66	-1327.00	  992.07
     39.5670	 2526.00	 2437.62	-1288.96	  994.23
     39.5930	 2568.00	 2432.73	-1242.06	  996.41
     39.6190	 2527.00	 2427.97	-1278.31	  998.60
     39.6450	 2603.00	 2423.36	-1197.70	 1000.79
     39.6710	 2613.00	 2418.89	-1183.23	 1003.01
     39.6970	 2516.00	 2414.56	-1275.89	 1005.23
     39.7230	 2562.00	 2410.36	-1225.70	 1007.46
     39.7490	 2530.00	 2406.30	-1253.64	 1009.71
     39.7750	 2642.00	 2402.38	-1137.72	 1011.97
     39.8010	 2592.00	 2398.59	-1183.93	 1014.24
     39.8270	 2514.00	 2394.94	-1258.28	 1016.51
     39.8530	 2546.00	 2391.42	-1222.76	 1018.80
     39.8790	 2522.00	 2388.03	-1243.37	 1021.10
     39.9050	 2475.00	 2384.78	-1287.12	 1023.42
     39.9310	 2511.00	 2381.66	-1247.99	 1025.74
     39.9570	 2531.00	 2378.66	-1225.00	 1028.07
     39.9830	 2549.00	 2375.80	-1204.14	 1030.41
     40.0090	 2515.00	 2373.07	-1235.40	 1032.76
     40.0350	 2531.00	 2370.46	-1216.80	 1035.12
     40.0610	 2576.00	 2367.99	-1169.32	 1037.49
     40.0870	 2541.00	 2365.64	-1201.98	 1039.86
     40.1130	 2540.00	 2363.42	-1200.76	 1042.25
     40.1390	 2482.00	 2361.33	-1256.66	 1044.65
     40.1650	 2456.00	 2359.36	-1280.70	 1047.05
     40.1910	 2469.00	 2357.52	-1265.86	 1049.46
     40.2170	 2516.00	 2355.81	-1217.15	 1051.88
     40.2430	 2536.00	 2354.22	-1195.56	 1054.31
     40.2690	 2526.00	 2352.76	-1204.10	 1056.75
     40.2950	 2514.00	 2351.43	-1214.77	 1059.19
     40.3210	 2504.00	 2350.23	-1223.56	 1061.64
     40.3470	 2531.00	 2349.15	-1195.48	 1064.10
     40.3730	 2528.00	 2348.19	-1197.53	 1066.57
     40.3990	 2497.00	 2347.37	-1227.71	 1069.04
     40.4250	 2466.00	 2346.67	-1258.01	 1071.52
     40.4510	 2485.00	 2346.10	-1238.44	 1074.01
     40.4770	 2512.00	 2345.67	-1211.00	 1076.50
     40.5030	 2491.00	 2345.36	-1231.69	 1079.00
     40.5290	 2508.00	 2345.17	-1214.51	 1081.50
     40.5550	 2514.00	 2345.13	-1208.46	 1084.01
     40.5810	 2485.00	 2345.21	-1237.55	 1086.53
     40.6070	 2463.00	 2345.43	-1259.76	 1089.05
     40.6330	 2442.00	 2345.77	-1281.11	 1091.58
     40.6590	 2422.00	 2346.26	-1301.60	 1094.11
     40.6850	 2432.00	 2346.88	-1292.22	 1096.65
     40.7110	 2430.00	 2347.64	-1294.98	 1099.19
     40.7370	 2458.00	 2348.55	-1267.88	 1101.74
     40.7630	 2480.00	 2349.59	-1246.93	 1104.29
     40.7890	 2537.00	 2350.78	-1191.11	 1106.84
     40.8150	 2483.00	 2352.11	-1246.45	 1109.40
     40.8410	 2457.00	 2353.59	-1273.93	 1111.96
     40.8670	 2455.00	 2355.23	-1277.57	 1114.53
     40.8930	 2514.00	 2357.02	-1220.35	 1117.10
     40.9190	 2438.00	 2358.96	-1298.30	 1119.67
     40.9450	 2475.00	 2361.07	-1263.40	 1122.25
     40.9710	 2540.00	 2363.34	-1200.68	 1124.83
     40.9970	 2497.00	 2365.78	-1246.11	 1127.41
     41.0230	 2479.00	 2368.39	-1266.72	 1130.00
     41.0490	 2451.00	 2371.17	-1297.51	 1132.59
     41.0750	 2518.00	 2374.14	-1233.48	 1135.18
     41.1010	 2539.00	 2377.30	-1215.64	 1137.77
     41.1270	 2546.00	 2380.65	-1211.98	 1140.36
     41.1530	 2565.00	 2384.19	-1196.53	 1142.96
     41.1790	 2468.00	 2387.95	-1297.28	 1145.56
     41.2050	 2460.00	 2391.91	-1309.25	 1148.16
     41.2310	 2482.00	 2396.10	-1291.43	 1150.76
     41.2570	 2555.00	 2400.51	-1222.85	 1153.36
     41.2830	 2455.00	 2405.16	-1327.50	 1155.96
     41.3090	 2480.00	 2410.06	-1307.39	 1158.57
     41.3350	 2476.00	 2415.21	-1316.55	 1161.17
     41.3610	 2487.00	 2420.64	-1310.97	 1163.78
     41.3870	 2452.00	 2426.34	-1351.68	 1166.38
     41.4130	 2519.00	 2432.34	-1290.68	 1168.99
     41.4390	 2548.00	 2438.65	-1267.99	 1171.59
     41.4650	 2530.00	 2445.29	-1292.63	 1174.20
     41.4910	 2488.00	 2452.27	-1341.60	 1176.80
     41.5170	 2457.00	 2459.61	-1379.94	 1179.40
     41.5430	 2513.00	 2467.33	-1331.66	 1182.01
     41.5690	 2400.00	 2475.45	-1452.79	 1184.61
     41.5950	 2451.00	 2484.00	-1410.34	 1187.21
     41.6210	 2465.00	 2493.01	-1405.35	 1189.81
     41.6470	 2494.00	 2502.50	-1385.83	 1192.41
     41.6730	 2460.00	 2512.50	-1429.84	 1195.01
     41.6990	 2452.00	 2523.05	-1448.39	 1197.60
     41.7250	 2570.00	 2534.19	-1341.53	 1200.20
     41.7510	 2447.00	 2545.95	-1476.29	 1202.79
     41.7770	 2574.00	 2558.40	-1361.73	 1205.38
     41.8030	 2485.00	 2571.56	-1463.90	 1207.97
     41.8290	 2531.00	 2585.51	-1431.84	 1210.55
     41.8550	 2467.00	 2600.29	-1510.63	 1213.14
     41.8810	 2435.00	 2615.98	-1558.32	 1215.72
     41.9070	 2601.00	 2632.66	-1409.00	 1218.30
     41.9330	 2419.00	 2650.40	-1608.74	 1220.87
     41.9590	 2572.00	 2669.30	-1474.63	 1223.44
     41.9850	 2559.00	 2689.46	-1507.79	 1226.01
     42.0110	 2527.00	 2710.98	-1561.32	 1228.57
     42.0370	 2505.00	 2734.01	-1606.34	 1231.13
     42.0630	 2538.00	 2758.66	-1598.00	 1233.69
     42.0890	 2603.00	 2785.11	-1559.45	 1236.24
     42.1150	 2676.00	 2813.51	-1514.85	 1238.79
     42.1410	 2744.00	 2844.07	-1477.40	 1241.33
     42.1670	 2748.00	 2876.97	-1506.31	 1243.87
     42.1930	 2865.00	 2912.47	-1424.81	 1246.41
     42.2190	 2908.00	 2950.82	-1420.16	 1248.94
     42.2450	 3024.00	 2992.29	-1345.63	 1251.47
     42.2710	 3142.00	 3037.22	-1272.55	 1253.99
     42.2970	 3104.00	 3085.92	-1359.26	 1256.50
     42.3230	 3162.00	 3138.79	-1354.12	 1259.01
     42.3490	 3302.00	 3196.20	-1271.54	 1261.52
     42.3750	 3443.00	 3258.62	-1192.96	 1264.02
     42.4010	 3526.00	 3326.49	-1177.83	 1266.51
     42.4270	 3573.00	 3400.30	-1204.64	 1269.00
     42.4530	 3679.00	 3480.52	-1178.86	 1271.48
     42.4790	 3766.00	 3567.66	-1179.00	 1273.96
     42.5050	 3882.00	 3662.16	-1157.50	 1276.43
     42.5310	 4022.00	 3764.42	-1119.75	 1278.89
     42.5570	 4072.00	 3874.68	-1180.02	 1281.35
     42.5830	 4310.00	 3993.09	-1060.43	 1283.80
     42.6090	 4442.00	 4119.49	-1054.83	 1286.24
     42.6350	 4507.00	 4253.38	-1123.71	 1288.68
     42.6610	 4663.00	 4393.78	-1108.11	 1291.10
     42.6870	 4771.00	 4539.20	-1145.54	 1293.53
     42.7130	 4800.00	 4687.42	-1264.76	 1295.94
     42.7390	 4879.00	 4835.49	-1333.82	 1298.35
     42.7650	 4979.00	 4979.67	-1378.00	 1300.75
     42.7910	 5100.00	 5115.64	-1392.98	 1303.14
     42.8170	 5142.00	 5238.58	-1473.91	 1305.52
     42.8430	 5175.00	 5343.57	-1545.91	 1307.90
     42.8690	 5191.00	 5426.02	-1612.36	 1310.27
     42.8950	 5246.00	 5482.16	-1613.49	 1312.63
     42.9210	 5265.00	 5509.35	-1621.69	 1314.98
     42.9470	 5278.00	 5506.43	-1605.77	 1317.32
     42.9730	 5296.00	 5473.81	-1555.15	 1319.65
     42.9990	 5250.00	 5413.32	-1540.66	 1321.98
     43.0250	 5201.00	 5328.06	-1504.39	 1324.30
     43.0510	 5069.00	 5221.99	-1530.32	 1326.60
     43.0770	 5002.00	 5099.62	-1474.95	 1328.90
     43.1030	 5052.00	 4965.54	-1290.88	 1331.19
     43.1290	 4971.00	 4824.23	-1230.56	 1333.47
     43.1550	 4785.00	 4679.67	-1272.01	 1335.74
     43.1810	 4697.00	 4535.31	-1215.65	 1338.00
     43.2070	 4623.00	 4393.83	-1148.16	 1340.25
     43.2330	 4509.00	 4257.30	-1125.64	 1342.49
     43.2590	 4389.00	 4127.18	-1115.52	 1344.73
     43.2850	 4168.00	 4004.39	-1213.73	 1346.95
     43.3110	 4124.00	 3889.39	-1142.72	 1349.16
     43.3370	 4008.00	 3782.33	-1151.67	 1351.36
     43.3630	 3840.00	 3683.16	-1220.50	 1353.55
     43.3890	 3819.00	 3591.56	-1149.90	 1355.73
     43.4150	 3646.00	 3507.20	-1238.54	 1357.90
     43.4410	 3454.00	 3429.62	-1352.96	 1360.06
     43.4670	 3389.00	 3358.37	-1346.71	 1362.21
     43.4930	 3335.00	 3292.96	-1335.29	 1364.34
     43.5190	 3228.00	 3232.91	-1382.25	 1366.47
     43.5450	 3143.00	 3177.78	-1412.12	 1368.59
     43.5710	 3010.00	 3127.15	-1494.49	 1370.69
     43.5970	 2969.00	 3080.61	-1488.95	 1372.78
     43.6230	 2894.00	 3037.80	-1521.13	 1374.86
     43.6490	 2891.00	 2998.37	-1484.71	 1376.93
     43.6750	 2732.00	 2962.03	-1607.37	 1378.99
     43.7010	 2652.00	 2928.49	-1653.83	 1381.04
     43.7270	 2618.00	 2897.49	-1656.83	 1383.07
     43.7530	 2618.00	 2868.81	-1628.15	 1385.09
     43.7790	 2619.00	 2842.24	-1600.58	 1387.10
     43.8050	 2572.00	 2817.59	-1622.93	 1389.10
     43.8310	 2484.00	 2794.69	-1688.02	 1391.09
     43.8570	 2586.00	 2773.38	-1564.72	 1393.06
     43.8830	 2513.00	 2753.54	-1617.88	 1395.02
     43.9090	 2531.00	 2735.03	-1581.37	 1396.97
     43.9350	 2435.00	 2717.75	-1660.08	 1398.91
     43.9610	 2433.00	 2701.59	-1645.92	 1400.83
     43.9870	 2484.00	 2686.46	-1579.80	 1402.74
     44.0130	 2425.00	 2672.28	-1624.62	 1404.64
     44.0390	 2466.00	 2658.98	-1570.32	 1406.53
     44.0650	 2469.00	 2646.49	-1554.83	 1408.40
     44.0910	 2520.00	 2634.74	-1492.08	 1410.26
     44.1170	 2523.00	 2623.69	-1478.03	 1412.11
     44.1430	 2499.00	 2613.28	-1491.61	 1413.94
     44.1690	 2426.00	 2603.46	-1554.79	 1415.76
     44.1950	 2485.00	 2594.19	-1486.53	 1417.56
     44.2210	 2490.00	 2585.44	-1472.78	 1419.36
     44.2470	 2454.00	 2577.18	-1500.51	 1421.14
     44.2730	 2558.00	 2569.36	-1388.69	 1422.90
     44.2990	 2532.00	 2561.96	-1407.29	 1424.65
     44.3250	 2427.00	 2554.95	-1505.29	 1426.39
     44.3510	 2473.00	 2548.31	-1452.65	 1428.12
     44.3770	 2443.00	 2542.02	-1476.36	 1429.83
     44.4030	 2512.00	 2536.05	-1401.39	 1431.52
     44.4290	 2449.00	 2530.39	-1458.73	 1433.21
     44.4550	 2423.00	 2525.01	-1479.35	 1434.87
     44.4810	 2421.00	 2519.91	-1476.25	 1436.53
     44.5070	 2486.00	 2515.07	-1406.40	 1438.17
     44.5330	 2452.00	 2510.46	-1435.80	 1439.79
     44.5590	 2382.00	 2506.09	-1501.42	 1441.40
     44.5850	 2416.00	 2501.93	-1463.27	 1443.00
     44.6110	 2389.00	 2497.98	-1486.32	 1444.58
     44.6370	 2374.00	 2494.23	-1497.56	 1446.15
     44.6630	 2388.00	 2490.66	-1479.99	 1447.70
     44.6890	 2430.00	 2487.27	-1434.60	 1449.24
     44.7150	 2428.00	 2484.04	-1433.38	 1450.76
     44.7410	 2492.00	 2480.98	-1366.32	 1452.27
     44.7670	 2445.00	 2478.07	-1410.41	 1453.76
     44.7930	 2452.00	 2475.31	-1400.64	 1455.24
     44.8190	 2464.00	 2472.68	-1386.02	 1456.71
     44.8450	 2424.00	 2470.19	-1423.53	 1458.15
     44.8710	 2468.00	 2467.83	-1377.16	 1459.59
     44.8970	 2462.00	 2465.59	-1380.92	 1461.01
     44.9230	 2509.00	 2463.46	-1331.80	 1462.41
     44.9490	 2397.00	 2461.45	-1441.79	 1463.80
     44.9750	 2354.00	 2459.55	-1482.88	 1465.17
     45.0010	 2352.00	 2457.75	-1483.08	 1466.52
     45.0270	 2388.00	 2456.04	-1445.38	 1467.87
     45.0530	 2450.00	 2454.44	-1381.77	 1469.19
     45.0790	 2383.00	 2452.92	-1447.26	 1470.50
     45.1050	 2361.00	 2451.49	-1467.83	 1471.80
     45.1310	 2394.00	 2450.15	-1433.49	 1473.08
     45.1570	 2393.00	 2448.89	-1433.22	 1474.34
     45.1830	 2390.00	 2447.70	-1435.04	 1475.59
     45.2090	 2400.00	 2446.59	-1423.93	 1476.82
     45.2350	 2418.00	 2445.55	-1404.89	 1478.04
     45.2610	 2383.00	 2444.59	-1438.92	 1479.24
     45.2870	 2386.00	 2443.68	-1435.02	 1480.42
     45.3130	 2438.00	 2442.85	-1382.18	 1481.59
     45.3390	 2389.00	 2442.07	-1430.40	 1482.74
     45.3650	 2387.00	 2441.35	-1431.69	 1483.88
     45.3910	 2437.00	 2440.69	-1381.03	 1485.00
     45.4170	 2392.00	 2440.08	-1425.42	 1486.11
     45.4430	 2362.00	 2439.52	-1454.86	 1487.20
     45.4690	 2357.00	 2439.02	-1459.36	 1488.27
     45.4950	 2328.00	 2438.56	-1487.90	 1489.33
     45.5210	 2340.00	 2438.15	-1475.48	 1490.37
     45.5470	 2340.00	 2437.78	-1475.11	 1491.39
     45.5730	 2357.00	 2437.45	-1457.79	 1492.40
     45.5990	 2365.00	 2437.16	-1449.50	 1493.39
     45.6250	 2369.00	 2436.91	-1445.25	 1494.37
     45.6510	 2385.00	 2436.69	-1429.03	 1495.33
     45.6770	 2345.00	 2436.51	-1468.85	 1496.27
     45.7030	 2383.00	 2436.36	-1430.69	 1497.20
     45.7290	 2398.00	 2436.24	-1415.57	 1498.11
     45.7550	 2385.00	 2436.14	-1428.48	 1499.00
     45.7810	 2380.00	 2436.07	-1433.41	 1499.88
     45.8070	 2304.00	 2436.03	-1509.37	 1500.74
     45.8330	 2359.00	 2436.01	-1454.35	 1501.59
     45.8590	 2362.00	 2436.01	-1451.35	 1502.42
     45.8850	 2338.00	 2436.03	-1475.36	 1503.23
     45.9110	 2385.00	 2436.06	-1428.40	 1504.03
     45.9370	 2410.00	 2436.11	-1403.45	 1504.81
     45.9630	 2430.00	 2436.17	-1383.51	 1505.57
     45.9890	 2421.00	 2436.25	-1392.59	 1506.32
     46.0150	 2418.00	 2436.33	-1395.67	 1507.05
     46.0410	 2424.00	 2436.43	-1389.76	 1507.76
     46.0670	 2334.00	 2436.53	-1479.86	 1508.46
     46.0930	 2360.00	 2436.63	-1453.97	 1509.14
     46.1190	 2377.00	 2436.74	-1437.07	 1509.80
     46.1450	 2290.00	 2436.84	-1524.18	 1510.45
     46.1710	 2353.00	 2436.95	-1461.29	 1511.08
     46.1970	 2415.00	 2437.06	-1399.39	 1511.70
     46.2230	 2438.00	 2437.16	-1376.50	 1512.30
     46.2490	 2333.00	 2437.25	-1481.59	 1512.88
     46.2750	 2294.00	 2437.34	-1520.68	 1513.44
     46.3010	 2365.00	 2437.42	-1449.76	 1513.99
     46.3270	 2398.00	 2437.49	-1416.83	 1514.52
     46.3530	 2417.00	 2437.55	-1397.89	 1515.04
     46.3790	 2371.00	 2437.60	-1443.93	 1515.54
     46.4050	 2346.00	 2437.63	-1468.96	 1516.02
     46.4310	 2350.00	 2437.64	-1464.98	 1516.49
     46.4570	 2388.00	 2437.64	-1426.97	 1516.94
     46.4830	 2419.00	 2437.61	-1395.95	 1517.37
     46.5090	 2436.00	 2437.57	-1378.91	 1517.79
     46.5350	 2340.00	 2437.51	-1474.84	 1518.19
     46.5610	 2370.00	 2437.42	-1444.75	 1518.57
     46.5870	 2436.00	 2437.30	-1378.64	 1518.94
     46.6130	 2264.00	 2437.16	-1550.50	 1519.29
     46.6390	 2322.00	 2437.00	-1492.33	 1519.62
     46.6650	 2273.00	 2436.80	-1541.14	 1519.94
     46.6910	 2362.00	 2436.58	-1451.92	 1520.24
     46.7170	 2306.00	 2436.33	-1507.66	 1520.53
     46.7430	 2395.00	 2436.04	-1418.38	 1520.80
     46.7690	 2337.00	 2435.72	-1476.06	 1521.05
     46.7950	 2402.00	 2435.37	-1410.71	 1521.29
     46.8210	 2362.00	 2434.99	-1450.33	 1521.51
     46.8470	 2383.00	 2434.57	-1428.91	 1521.71
     46.8730	 2397.00	 2434.12	-1414.45	 1521.90
     46.8990	 2443.00	 2433.63	-1367.97	 1522.07
     46.9250	 2372.00	 2433.10	-1438.44	 1522.22
     46.9510	 2308.00	 2432.54	-1501.88	 1522.36
     46.9770	 2332.00	 2431.94	-1477.28	 1522.48
     47.0030	 2343.00	 2431.30	-1465.64	 1522.59
     47.0290	 2348.00	 2430.62	-1459.96	 1522.68
     47.0550	 2414.00	 2429.91	-1393.25	 1522.76
     47.0810	 2330.00	 2429.15	-1476.49	 1522.81
     47.1070	 2397.00	 2428.36	-1408.70	 1522.86
     47.1330	 2439.00	 2427.53	-1365.87	 1522.88
     47.1590	 2308.00	 2426.66	-1496.00	 1522.89
     47.1850	 2349.00	 2425.75	-1454.09	 1522.89
     47.2110	 2255.00	 2424.81	-1547.14	 1522.86
     47.2370	 2333.00	 2423.82	-1468.16	 1522.83
     47.2630	 2284.00	 2422.80	-1516.14	 1522.77
     47.2890	 2360.00	 2421.74	-1439.07	 1522.70
     47.3150	 2356.00	 2420.64	-1441.98	 1522.62
     47.3410	 2355.00	 2419.50	-1441.84	 1522.52
     47.3670	 2381.00	 2418.33	-1414.67	 1522.40
     47.3930	 2323.00	 2417.13	-1471.46	 1522.27
     47.4190	 2366.00	 2415.88	-1427.22	 1522.12
     47.4450	 2339.00	 2414.61	-1452.94	 1521.96
     47.4710	 2335.00	 2413.29	-1455.63	 1521.78
     47.4970	 2414.00	 2411.95	-1375.29	 1521.59
     47.5230	 2392.00	 2410.57	-1395.91	 1521.38
     47.5490	 2401.00	 2409.17	-1385.50	 1521.15
     47.5750	 2385.00	 2407.73	-1400.07	 1520.91
     47.6010	 2348.00	 2406.26	-1435.60	 1520.66
     47.6270	 2270.00	 2404.76	-1512.10	 1520.38
     47.6530	 2282.00	 2403.24	-1498.58	 1520.10
     47.6790	 2278.00	 2401.69	-1501.02	 1519.80
     47.7050	 2297.00	 2400.11	-1480.45	 1519.48
     47.7310	 2363.00	 2398.51	-1412.84	 1519.15
     47.7570	 2390.00	 2396.88	-1384.22	 1518.80
     47.7830	 2426.00	 2395.23	-1346.57	 1518.44
     47.8090	 2358.00	 2393.56	-1412.90	 1518.06
     47.8350	 2351.00	 2391.87	-1418.21	 1517.67
     47.8610	 2363.00	 2390.16	-1404.50	 1517.26
     47.8870	 2351.00	 2388.43	-1414.77	 1516.84
     47.9130	 2340.00	 2386.68	-1424.02	 1516.41
     47.9390	 2372.00	 2384.92	-1390.26	 1515.96
     47.9650	 2392.00	 2383.14	-1368.48	 1515.49
     47.9910	 2345.00	 2381.35	-1413.69	 1515.01
     48.0170	 2354.00	 2379.55	-1402.89	 1514.52
     48.0430	 2374.00	 2377.73	-1381.07	 1514.01
     48.0690	 2325.00	 2375.91	-1428.25	 1513.48
     48.0950	 2338.00	 2374.07	-1413.41	 1512.95
     48.1210	 2319.00	 2372.23	-1430.57	 1512.39
     48.1470	 2304.00	 2370.38	-1443.72	 1511.83
     48.1730	 2324.00	 2368.52	-1421.86	 1511.25
     48.1990	 2323.00	 2366.66	-1421.00	 1510.65
     48.2250	 2368.00	 2364.79	-1374.13	 1510.05
     48.2510	 2366.00	 2362.92	-1374.26	 1509.42
     48.2770	 2361.00	 2361.05	-1377.39	 1508.79
     48.3030	 2383.00	 2359.18	-1353.52	 1508.14
     48.3290	 2384.00	 2357.31	-1350.65	 1507.47
     48.3550	 2399.00	 2355.44	-1333.77	 1506.79
     48.3810	 2345.00	 2353.57	-1385.90	 1506.10
     48.4070	 2304.00	 2351.70	-1425.04	 1505.40
     48.4330	 2314.00	 2349.84	-1413.17	 1504.68
     48.4590	 2320.00	 2347.98	-1405.31	 1503.95
     48.4850	 2433.00	 2346.12	-1290.46	 1503.20
     48.5110	 2469.00	 2344.28	-1252.61	 1502.44
     48.5370	 2323.00	 2342.43	-1396.77	 1501.67
     48.5630	 2353.00	 2340.60	-1364.94	 1500.89
     48.5890	 2400.00	 2338.78	-1316.11	 1500.09
     48.6150	 2345.00	 2336.96	-1369.30	 1499.28
     48.6410	 2400.00	 2335.16	-1312.49	 1498.45
     48.6670	 2421.00	 2333.36	-1289.70	 1497.61
     48.6930	 2384.00	 2331.58	-1324.92	 1496.76
     48.7190	 2401.00	 2329.81	-1306.15	 1495.90
     48.7450	 2407.00	 2328.05	-1298.39	 1495.02
     48.7710	 2430.00	 2326.30	-1273.64	 1494.14
     48.7970	 2431.00	 2324.57	-1270.91	 1493.24
     48.8230	 2377.00	 2322.86	-1323.19	 1492.32
     48.8490	 2340.00	 2321.16	-1358.49	 1491.40
     48.8750	 2320.00	 2319.47	-1376.81	 1490.46
     48.9010	 2402.00	 2317.80	-1293.14	 1489.51
     48.9270	 2368.00	 2316.15	-1325.48	 1488.55
     48.9530	 2386.00	 2314.51	-1305.85	 1487.57
     48.9790	 2422.00	 2312.89	-1268.23	 1486.58
     49.0050	 2460.00	 2311.30	-1228.63	 1485.59
     49.0310	 2336.00	 2309.71	-1351.05	 1484.58
     49.0570	 2386.00	 2308.15	-1299.49	 1483.55
     49.0830	 2408.00	 2306.61	-1275.95	 1482.52
     49.1090	 2467.00	 2305.09	-1215.43	 1481.47
     49.1350	 2361.00	 2303.59	-1319.92	 1480.42
     49.1610	 2414.00	 2302.11	-1265.44	 1479.35
     49.1870	 2486.00	 2300.65	-1191.98	 1478.27
     49.2130	 2374.00	 2299.21	-1302.55	 1477.18
     49.2390	 2381.00	 2297.79	-1294.13	 1476.08
     49.2650	 2404.00	 2296.40	-1269.74	 1474.96
     49.2910	 2360.00	 2295.03	-1312.36	 1473.84
     49.3170	 2325.00	 2293.68	-1346.02	 1472.70
     49.3430	 2404.00	 2292.35	-1265.69	 1471.56
     49.3690	 2404.00	 2291.05	-1264.39	 1470.40
     49.3950	 2383.00	 2289.77	-1284.11	 1469.23
     49.4210	 2496.00	 2288.52	-1169.86	 1468.05
     49.4470	 2507.00	 2287.29	-1157.63	 1466.86
     49.4730	 2463.00	 2286.09	-1200.43	 1465.67
     49.4990	 2477.00	 2284.91	-1185.25	 1464.46
     49.5250	 2480.00	 2283.76	-1181.09	 1463.24
     49.5510	 2525.00	 2282.67	-1135.01	 1462.01
     49.5770	 2470.00	 2281.57	-1188.91	 1460.77
     49.6030	 2402.00	 2280.50	-1255.83	 1459.52
     49.6290	 2457.00	 2279.45	-1199.78	 1458.25
     49.6550	 2334.00	 2278.43	-1321.76	 1456.98
     49.6810	 2404.00	 2277.43	-1250.77	 1455.70
     49.7070	 2443.00	 2276.46	-1210.80	 1454.42
     49.7330	 2437.00	 2275.54	-1215.88	 1453.12
     49.7590	 2496.00	 2274.63	-1155.97	 1451.81
     49.7850	 2478.00	 2273.75	-1173.08	 1450.49
     49.8110	 2540.00	 2272.89	-1110.23	 1449.16
     49.8370	 2365.00	 2272.06	-1284.40	 1447.83
     49.8630	 2433.00	 2271.26	-1215.60	 1446.48
     49.8890	 2498.00	 2270.49	-1149.83	 1445.13
     49.9150	 2495.00	 2269.75	-1152.09	 1443.76
     49.9410	 2509.00	 2269.04	-1137.37	 1442.39
     49.9670	 2498.00	 2268.35	-1147.69	 1441.01
     49.9930	 2495.00	 2267.70	-1150.04	 1439.62
     50.0190	 2543.00	 2267.08	-1101.42	 1438.22
     50.0450	 2569.00	 2266.49	-1074.82	 1436.81
     50.0710	 2518.00	 2265.92	-1125.26	 1435.40
     50.0970	 2461.00	 2265.39	-1181.73	 1433.98
     50.1230	 2450.00	 2264.89	-1192.23	 1432.54
     50.1490	 2460.00	 2264.42	-1181.76	 1431.10
     50.1750	 2482.00	 2263.98	-1159.32	 1429.66
     50.2010	 2433.00	 2263.58	-1207.91	 1428.20
     50.2270	 2394.00	 2263.20	-1246.54	 1426.74
     50.2530	 2426.00	 2262.86	-1214.19	 1425.27
     50.2790	 2481.00	 2262.55	-1158.88	 1423.79
     50.3050	 2452.00	 2262.27	-1187.60	 1422.30
     50.3310	 2422.00	 2262.02	-1217.36	 1420.81
     50.3570	 2443.00	 2261.81	-1196.14	 1419.31
     50.3830	 2492.00	 2261.63	-1146.96	 1417.80
     50.4090	 2500.00	 2261.48	-1138.81	 1416.28
     50.4350	 2425.00	 2261.36	-1213.70	 1414.76
     50.4610	 2417.00	 2261.28	-1221.62	 1413.23
     50.4870	 2428.00	 2261.23	-1210.57	 1411.69
     50.5130	 2462.00	 2261.22	-1176.56	 1410.15
     50.5390	 2406.00	 2261.24	-1232.58	 1408.60
     50.5650	 2429.00	 2261.29	-1209.63	 1407.04
     50.5910	 2488.00	 2261.38	-1150.72	 1405.48
     50.6170	 2464.00	 2261.50	-1174.84	 1403.91
     50.6430	 2430.00	 2261.66	-1209.00	 1402.34
     50.6690	 2388.00	 2261.85	-1251.19	 1400.75
     50.6950	 2354.00	 2262.08	-1285.41	 1399.17
     50.7210	 2387.00	 2262.34	-1252.67	 1397.57
     50.7470	 2478.00	 2262.63	-1161.97	 1395.97
     50.7730	 2477.00	 2262.96	-1163.30	 1394.37
     50.7990	 2440.00	 2263.33	-1200.67	 1392.76
     50.8250	 2478.00	 2263.73	-1163.07	 1391.14
     50.8510	 2486.00	 2264.17	-1155.51	 1389.52
     50.8770	 2444.00	 2264.64	-1197.98	 1387.89
     50.9030	 2370.00	 2265.15	-1272.49	 1386.26
     50.9290	 2336.00	 2265.69	-1307.03	 1384.62
     50.9550	 2400.00	 2266.27	-1243.61	 1382.97
     50.9810	 2390.00	 2266.89	-1254.22	 1381.33
     51.0070	 2340.00	 2267.54	-1304.87	 1379.67
     51.0330	 2371.00	 2268.22	-1274.56	 1378.01
     51.0590	 2389.00	 2268.94	-1257.28	 1376.35
     51.0850	 2403.00	 2269.70	-1244.04	 1374.68
     51.1110	 2398.00	 2270.49	-1249.83	 1373.01
     51.1370	 2395.00	 2271.32	-1253.66	 1371.34
     51.1630	 2438.00	 2272.18	-1211.52	 1369.65
     51.1890	 2418.00	 2273.08	-1232.42	 1367.97
     51.2150	 2349.00	 2274.01	-1302.35	 1366.28
     51.2410	 2394.00	 2274.98	-1258.32	 1364.59
     51.2670	 2430.00	 2275.98	-1223.32	 1362.89
     51.2930	 2416.00	 2277.02	-1238.36	 1361.19
     51.3190	 2381.00	 2278.09	-1274.43	 1359.48
     51.3450	 2297.00	 2279.20	-1359.54	 1357.78
     51.3710	 2348.00	 2280.34	-1309.68	 1356.06
     51.3970	 2379.00	 2281.51	-1279.85	 1354.35
     51.4230	 2376.00	 2282.72	-1284.06	 1352.63
     51.4490	 2285.00	 2283.96	-1376.30	 1350.91
     51.4750	 2408.00	 2285.23	-1254.57	 1349.18
     51.5010	 2342.00	 2286.53	-1321.87	 1347.45
     51.5270	 2330.00	 2287.87	-1335.21	 1345.72
     51.5530	 2370.00	 2289.24	-1296.57	 1343.99
     51.5790	 2373.00	 2290.64	-1294.97	 1342.25
     51.6050	 2334.00	 2292.06	-1335.40	 1340.51
     51.6310	 2352.00	 2293.52	-1318.86	 1338.77
     51.6570	 2313.00	 2295.01	-1359.35	 1337.02
     51.6830	 2300.00	 2296.53	-1373.86	 1335.28
     51.7090	 2361.00	 2298.07	-1314.41	 1333.53
     51.7350	 2379.00	 2299.64	-1297.98	 1331.78
     51.7610	 2421.00	 2301.24	-1257.57	 1330.02
     51.7870	 2333.00	 2302.86	-1347.20	 1328.27
     51.8130	 2271.00	 2304.51	-1410.85	 1326.51
     51.8390	 2353.00	 2306.18	-1330.52	 1324.75
     51.8650	 2350.00	 2307.88	-1335.22	 1322.99
     51.8910	 2361.00	 2309.60	-1325.94	 1321.23
     51.9170	 2315.00	 2311.34	-1373.68	 1319.46
     51.9430	 2411.00	 2313.10	-1279.44	 1317.70
     51.9690	 2318.00	 2314.88	-1374.22	 1315.93
     51.9950	 2347.00	 2316.68	-1347.02	 1314.16
     52.0210	 2324.00	 2318.50	-1371.84	 1312.39
     52.0470	 2307.00	 2320.34	-1390.67	 1310.62
     52.0730	 2444.00	 2322.19	-1255.52	 1308.85
     52.0990	 2345.00	 2324.05	-1356.39	 1307.08
     52.1250	 2433.00	 2325.93	-1270.27	 1305.30
     52.1510	 2340.00	 2327.82	-1365.16	 1303.53
     52.1770	 2386.00	 2329.72	-1321.06	 1301.75
     52.2030	 2470.00	 2331.63	-1238.97	 1299.98
     52.2290	 2389.00	 2333.55	-1321.89	 1298.20
     52.2550	 2290.00	 2335.48	-1422.82	 1296.43
     52.2810	 2331.00	 2337.41	-1383.75	 1294.65
     52.3070	 2332.00	 2339.35	-1384.69	 1292.87
     52.3330	 2349.00	 2341.29	-1369.63	 1291.10
     52.3590	 2373.00	 2343.23	-1347.57	 1289.32
     52.3850	 2316.00	 2345.18	-1406.52	 1287.55
     52.4110	 2392.00	 2347.12	-1332.46	 1285.77
     52.4370	 2374.00	 2349.06	-1352.40	 1283.99
     52.4630	 2328.00	 2351.00	-1400.34	 1282.22
     52.4890	 2342.00	 2352.93	-1388.27	 1280.44
     52.5150	 2363.00	 2354.86	-1369.20	 1278.67
     52.5410	 2394.00	 2356.78	-1340.12	 1276.90
     52.5670	 2229.00	 2358.69	-1507.03	 1275.12
     52.5930	 2271.00	 2360.60	-1466.93	 1273.35
     52.6190	 2310.00	 2362.48	-1429.82	 1271.58
     52.6450	 2301.00	 2364.36	-1440.70	 1269.81
     52.6710	 2295.00	 2366.23	-1448.56	 1268.04
     52.6970	 2386.00	 2368.07	-1359.41	 1266.27
     52.7230	 2354.00	 2369.91	-1393.24	 1264.51
     52.7490	 2349.00	 2371.72	-1400.06	 1262.74
     52.7750	 2337.00	 2373.52	-1413.86	 1260.98
     52.8010	 2298.00	 2375.29	-1454.63	 1259.22
     52.8270	 2320.00	 2377.05	-1434.39	 1257.46
     52.8530	 2315.00	 2378.79	-1441.12	 1255.70
     52.8790	 2336.00	 2380.50	-1421.83	 1253.94
     52.9050	 2380.00	 2382.19	-1379.52	 1252.19
     52.9310	 2282.00	 2383.85	-1479.19	 1250.43
     52.9570	 2273.00	 2385.49	-1489.83	 1248.68
     52.9830	 2231.00	 2387.10	-1533.44	 1246.93
     53.0090	 2237.00	 2388.69	-1529.03	 1245.19
     53.0350	 2317.00	 2390.25	-1450.59	 1243.44
     53.0610	 2336.00	 2391.78	-1433.12	 1241.70
     53.0870	 2311.00	 2393.29	-1459.62	 1239.96
     53.1130	 2298.00	 2394.76	-1474.10	 1238.22
     53.1390	 2301.00	 2396.21	-1472.55	 1236.49
     53.1650	 2246.00	 2397.63	-1528.97	 1234.76
     53.1910	 2261.00	 2399.02	-1515.36	 1233.03
     53.2170	 2314.00	 2400.39	-1463.72	 1231.30
     53.2430	 2362.00	 2401.72	-1417.06	 1229.58
     53.2690	 2334.00	 2403.03	-1446.37	 1227.86
     53.2950	 2271.00	 2404.31	-1510.65	 1226.14
     53.3210	 2216.00	 2405.56	-1566.90	 1224.43
     53.3470	 2231.00	 2406.78	-1553.12	 1222.71
     53.3730	 2283.00	 2407.98	-1502.32	 1221.01
     53.3990	 2248.00	 2409.15	-1538.49	 1219.30
     53.4250	 2210.00	 2410.30	-1577.64	 1217.60
     53.4510	 2259.00	 2411.42	-1529.76	 1215.90
     53.4770	 2260.00	 2412.52	-1529.86	 1214.21
     53.5030	 2275.00	 2413.59	-1515.93	 1212.52
     53.5290	 2308.00	 2414.65	-1483.99	 1210.83
     53.5550	 2269.00	 2415.68	-1524.02	 1209.15
     53.5810	 2255.00	 2416.70	-1539.03	 1207.47
     53.6070	 2249.00	 2417.69	-1546.03	 1205.80
     53.6330	 2257.00	 2418.67	-1539.01	 1204.13
     53.6590	 2259.00	 2419.64	-1537.97	 1202.46
     53.6850	 2224.00	 2420.59	-1573.92	 1200.80
     53.7110	 2250.00	 2421.53	-1548.86	 1199.14
     53.7370	 2295.00	 2422.45	-1504.79	 1197.49
     53.7630	 2287.00	 2423.37	-1513.71	 1195.84
     53.7890	 2277.00	 2424.28	-1524.62	 1194.20
     53.8150	 2257.00	 2425.19	-1545.53	 1192.56
     53.8410	 2270.00	 2426.09	-1533.43	 1190.92
     53.8670	 2291.00	 2426.99	-1513.33	 1189.29
     53.8930	 2221.00	 2427.89	-1584.22	 1187.66
     53.9190	 2242.00	 2428.79	-1564.12	 1186.04
     53.9450	 2321.00	 2429.69	-1486.03	 1184.42
     53.9710	 2323.00	 2430.60	-1484.94	 1182.81
     53.9970	 2290.00	 2431.51	-1518.85	 1181.21
     54.0230	 2298.00	 2432.44	-1511.78	 1179.60
     54.0490	 2296.00	 2433.37	-1514.71	 1178.01
     54.0750	 2300.00	 2434.32	-1511.66	 1176.42
     54.1010	 2214.00	 2435.29	-1598.62	 1174.83
     54.1270	 2229.00	 2436.27	-1584.60	 1173.25
     54.1530	 2273.00	 2437.26	-1541.60	 1171.68
     54.1790	 2324.00	 2438.28	-1491.62	 1170.11
     54.2050	 2289.00	 2439.32	-1527.66	 1168.54
     54.2310	 2296.00	 2440.38	-1521.72	 1166.98
     54.2570	 2335.00	 2441.47	-1483.81	 1165.43
     54.2830	 2341.00	 2442.59	-1478.92	 1163.88
     54.3090	 2291.00	 2443.73	-1530.07	 1162.34
     54.3350	 2310.00	 2444.91	-1512.24	 1160.80
     54.3610	 2306.00	 2446.11	-1517.45	 1159.27
     54.3870	 2367.00	 2447.35	-1457.69	 1157.75
     54.4130	 2369.00	 2448.63	-1456.97	 1156.23
     54.4390	 2357.00	 2449.94	-1470.28	 1154.72
     54.4650	 2299.00	 2451.29	-1529.63	 1153.21
     54.4910	 2286.00	 2452.68	-1544.02	 1151.71
     54.5170	 2391.00	 2454.11	-1440.44	 1150.22
     54.5430	 2413.00	 2455.58	-1419.91	 1148.73
     54.5690	 2318.00	 2457.09	-1516.43	 1147.25
     54.5950	 2285.00	 2458.64	-1550.98	 1145.77
     54.6210	 2333.00	 2460.24	-1504.58	 1144.30
     54.6470	 2287.00	 2461.89	-1552.22	 1142.84
     54.6730	 2398.00	 2463.58	-1442.91	 1141.39
     54.6990	 2345.00	 2465.31	-1497.65	 1139.94
     54.7250	 2428.00	 2467.09	-1416.43	 1138.49
     54.7510	 2363.00	 2468.92	-1483.26	 1137.06
     54.7770	 2356.00	 2470.80	-1492.13	 1135.63
     54.8030	 2316.00	 2472.72	-1534.06	 1134.20
     54.8290	 2350.00	 2474.69	-1502.03	 1132.79
     54.8550	 2337.00	 2476.71	-1517.05	 1131.38
     54.8810	 2329.00	 2478.78	-1527.11	 1129.97
     54.9070	 2439.00	 2480.89	-1419.23	 1128.58
     54.9330	 2373.00	 2483.05	-1487.39	 1127.19
     54.9590	 2385.00	 2485.26	-1477.59	 1125.81
     54.9850	 2418.00	 2487.51	-1446.85	 1124.43
     55.0110	 2387.00	 2489.81	-1480.14	 1123.07
     55.0370	 2461.00	 2492.15	-1408.49	 1121.71
     55.0630	 2421.00	 2494.54	-1450.87	 1120.35
     55.0890	 2356.00	 2496.97	-1518.30	 1119.01
     55.1150	 2341.00	 2499.44	-1535.77	 1117.67
     55.1410	 2384.00	 2501.95	-1495.28	 1116.33
     55.1670	 2396.00	 2504.50	-1485.83	 1115.01
     55.1930	 2444.00	 2507.08	-1440.42	 1113.69
     55.2190	 2440.00	 2509.71	-1447.04	 1112.38
     55.2450	 2377.00	 2512.36	-1512.70	 1111.08
     55.2710	 2437.00	 2515.05	-1455.39	 1109.78
     55.2970	 2398.00	 2517.77	-1497.11	 1108.50
     55.3230	 2507.00	 2520.52	-1390.86	 1107.22
     55.3490	 2476.00	 2523.30	-1424.63	 1105.94
     55.3750	 2483.00	 2526.09	-1420.43	 1104.68
     55.4010	 2455.00	 2528.91	-1451.25	 1103.42
     55.4270	 2429.00	 2531.75	-1480.09	 1102.17
     55.4530	 2381.00	 2534.61	-1530.94	 1100.93
     55.4790	 2454.00	 2537.47	-1460.81	 1099.69
     55.5050	 2473.00	 2540.35	-1444.69	 1098.47
     55.5310	 2412.00	 2543.24	-1508.57	 1097.25
     55.5570	 2442.00	 2546.13	-1481.46	 1096.04
     55.5830	 2525.00	 2549.02	-1401.36	 1094.83
     55.6090	 2508.00	 2551.91	-1421.25	 1093.64
     55.6350	 2442.00	 2554.79	-1490.13	 1092.45
     55.6610	 2459.00	 2557.67	-1476.00	 1091.27
     55.6870	 2475.00	 2560.53	-1462.87	 1090.10
     55.7130	 2496.00	 2563.38	-1444.71	 1088.93
     55.7390	 2516.00	 2566.20	-1427.54	 1087.78
     55.7650	 2534.00	 2569.01	-1412.34	 1086.63
     55.7910	 2502.00	 2571.78	-1447.12	 1085.49
     55.8170	 2453.00	 2574.53	-1498.86	 1084.36
     55.8430	 2453.00	 2577.23	-1501.57	 1083.23
     55.8690	 2532.00	 2579.90	-1425.24	 1082.12
     55.8950	 2546.00	 2582.53	-1413.87	 1081.01
     55.9210	 2510.00	 2585.11	-1452.44	 1079.91
     55.9470	 2490.00	 2587.63	-1474.97	 1078.82
     55.9730	 2545.00	 2590.10	-1422.44	 1077.73
     55.9990	 2526.00	 2592.51	-1443.85	 1076.66
     56.0250	 2520.00	 2594.86	-1452.20	 1075.59
     56.0510	 2561.00	 2597.14	-1413.48	 1074.53
     56.0770	 2567.00	 2599.34	-1409.68	 1073.48
     56.1030	 2639.00	 2601.47	-1339.81	 1072.44
     56.1290	 2612.00	 2603.52	-1368.86	 1071.40
     56.1550	 2532.00	 2605.48	-1450.82	 1070.37
     56.1810	 2549.00	 2607.35	-1435.69	 1069.36
     56.2070	 2591.00	 2609.13	-1395.47	 1068.35
     56.2330	 2593.00	 2610.82	-1395.15	 1067.34
     56.2590	 2533.00	 2612.40	-1456.74	 1066.35
     56.2850	 2584.00	 2613.88	-1407.21	 1065.37
     56.3110	 2689.00	 2615.25	-1303.58	 1064.39
     56.3370	 2702.00	 2616.50	-1291.84	 1063.42
     56.3630	 2678.00	 2617.65	-1316.98	 1062.46
     56.3890	 2673.00	 2618.67	-1323.01	 1061.51
     56.4150	 2675.00	 2619.57	-1321.91	 1060.56
     56.4410	 2651.00	 2620.35	-1346.68	 1059.63
     56.4670	 2661.00	 2621.00	-1337.33	 1058.70
     56.4930	 2624.00	 2621.51	-1374.85	 1057.78
     56.5190	 2557.00	 2621.90	-1442.23	 1056.87
     56.5450	 2550.00	 2622.15	-1449.48	 1055.97
     56.5710	 2588.00	 2622.26	-1411.59	 1055.08
     56.5970	 2627.00	 2622.22	-1372.56	 1054.19
     56.6230	 2693.00	 2622.05	-1306.39	 1053.31
     56.6490	 2633.00	 2621.74	-1366.07	 1052.45
     56.6750	 2618.00	 2621.27	-1380.61	 1051.59
     56.7010	 2653.00	 2620.66	-1345.00	 1050.73
     56.7270	 2643.00	 2619.91	-1354.24	 1049.89
     56.7530	 2673.00	 2619.00	-1323.34	 1049.05
     56.7790	 2665.00	 2617.95	-1330.28	 1048.23
     56.8050	 2644.00	 2616.74	-1350.08	 1047.41
     56.8310	 2602.00	 2615.38	-1390.72	 1046.60
     56.8570	 2594.00	 2613.88	-1397.21	 1045.80
     56.8830	 2659.00	 2612.22	-1330.56	 1045.00
     56.9090	 2754.00	 2610.41	-1233.75	 1044.22
     56.9350	 2690.00	 2608.45	-1295.79	 1043.44
     56.9610	 2625.00	 2606.35	-1358.68	 1042.67
     56.9870	 2607.00	 2604.09	-1374.43	 1041.91
     57.0130	 2576.00	 2601.69	-1403.03	 1041.16
     57.0390	 2668.00	 2599.15	-1308.49	 1040.41
     57.0650	 2671.00	 2596.46	-1302.80	 1039.68
     57.0910	 2632.00	 2593.63	-1338.97	 1038.95
     57.1170	 2673.00	 2590.66	-1295.00	 1038.23
     57.1430	 2640.00	 2587.55	-1324.89	 1037.52
     57.1690	 2708.00	 2584.31	-1253.64	 1036.82
     57.1950	 2612.00	 2580.93	-1346.27	 1036.12
     57.2210	 2651.00	 2577.42	-1303.76	 1035.44
     57.2470	 2706.00	 2573.79	-1245.13	 1034.76
     57.2730	 2727.00	 2570.03	-1220.37	 1034.09
     57.2990	 2663.00	 2566.15	-1280.49	 1033.43
     57.3250	 2657.00	 2562.15	-1282.49	 1032.77
     57.3510	 2625.00	 2558.04	-1310.38	 1032.13
     57.3770	 2583.00	 2553.82	-1348.16	 1031.49
     57.4030	 2603.00	 2549.49	-1323.83	 1030.86
     57.4290	 2626.00	 2545.06	-1296.39	 1030.24
     57.4550	 2557.00	 2540.52	-1360.86	 1029.62
     57.4810	 2672.00	 2535.89	-1241.23	 1029.02
     57.5070	 2512.00	 2531.17	-1396.51	 1028.42
     57.5330	 2541.00	 2526.36	-1362.70	 1027.83
     57.5590	 2593.00	 2521.46	-1305.80	 1027.25
     57.5850	 2625.00	 2516.49	-1268.83	 1026.68
     57.6110	 2579.00	 2511.44	-1309.78	 1026.11
     57.6370	 2585.00	 2506.32	-1298.66	 1025.55
     57.6630	 2544.00	 2501.13	-1334.47	 1025.00
     57.6890	 2645.00	 2495.88	-1228.21	 1024.46
     57.7150	 2554.00	 2490.57	-1313.90	 1023.93
     57.7410	 2639.00	 2485.20	-1223.54	 1023.40
     57.7670	 2568.00	 2479.79	-1289.12	 1022.88
     57.7930	 2661.00	 2474.32	-1190.66	 1022.37
     57.8190	 2616.00	 2468.82	-1230.16	 1021.87
     57.8450	 2652.00	 2463.28	-1188.61	 1021.37
     57.8710	 2487.00	 2457.70	-1348.04	 1020.88
     57.8970	 2489.00	 2452.10	-1340.43	 1020.40
     57.9230	 2509.00	 2446.47	-1314.80	 1019.93
     57.9490	 2534.00	 2440.81	-1284.15	 1019.46
     57.9750	 2511.00	 2435.14	-1301.48	 1019.01
     58.0010	 2477.00	 2429.46	-1329.80	 1018.56
     58.0270	 2485.00	 2423.77	-1316.11	 1018.11
     58.0530	 2510.00	 2418.07	-1285.41	 1017.68
     58.0790	 2419.00	 2412.37	-1370.70	 1017.25
     58.1050	 2528.00	 2406.67	-1256.00	 1016.83
     58.1310	 2548.00	 2400.97	-1230.31	 1016.42
     58.1570	 2500.00	 2395.28	-1272.62	 1016.01
     58.1830	 2438.00	 2389.61	-1328.94	 1015.61
     58.2090	 2412.00	 2383.94	-1349.28	 1015.22
     58.2350	 2433.00	 2378.30	-1322.64	 1014.84
     58.2610	 2431.00	 2372.68	-1319.02	 1014.46
     58.2870	 2453.00	 2367.08	-1291.42	 1014.09
     58.3130	 2408.00	 2361.51	-1330.85	 1013.73
     58.3390	 2464.00	 2355.97	-1269.31	 1013.37
     58.3650	 2414.00	 2350.47	-1313.80	 1013.02
     58.3910	 2395.00	 2345.00	-1327.33	 1012.68
     58.4170	 2427.00	 2339.56	-1289.90	 1012.35
     58.4430	 2409.00	 2334.17	-1302.51	 1012.02
     58.4690	 2403.00	 2328.82	-1303.16	 1011.70
     58.4950	 2349.00	 2323.52	-1351.86	 1011.39
     58.5210	 2298.00	 2318.27	-1397.60	 1011.08
     58.5470	 2349.00	 2313.06	-1341.40	 1010.78
     58.5730	 2402.00	 2307.91	-1283.25	 1010.48
     58.5990	 2395.00	 2302.81	-1285.15	 1010.20
     58.6250	 2362.00	 2297.77	-1313.11	 1009.92
     58.6510	 2293.00	 2292.79	-1377.13	 1009.64
     58.6770	 2298.00	 2287.87	-1367.21	 1009.38
     58.7030	 2360.00	 2283.01	-1300.35	 1009.12
     58.7290	 2354.00	 2278.22	-1301.55	 1008.86
     58.7550	 2324.00	 2273.48	-1326.82	 1008.61
     58.7810	 2317.00	 2268.82	-1329.16	 1008.37
     58.8070	 2352.00	 2264.22	-1289.56	 1008.14
     58.8330	 2337.00	 2259.70	-1300.04	 1007.91
     58.8590	 2289.00	 2255.24	-1343.58	 1007.68
     58.8850	 2271.00	 2250.86	-1357.20	 1007.47
     58.9110	 2292.00	 2246.55	-1331.89	 1007.26
     58.9370	 2331.00	 2242.32	-1288.65	 1007.05
     58.9630	 2326.00	 2238.16	-1289.50	 1006.85
     58.9890	 2346.00	 2234.08	-1265.41	 1006.66
     59.0150	 2288.00	 2230.07	-1319.41	 1006.48
     59.0410	 2300.00	 2226.15	-1303.49	 1006.30
     59.0670	 2283.00	 2222.30	-1316.64	 1006.12
     59.0930	 2277.00	 2218.54	-1318.88	 1005.95
     59.1190	 2249.00	 2214.86	-1343.20	 1005.79
     59.1450	 2235.00	 2211.26	-1353.60	 1005.63
     59.1710	 2137.00	 2207.74	-1448.08	 1005.48
     59.1970	 2176.00	 2204.31	-1405.65	 1005.33
     59.2230	 2277.00	 2200.96	-1301.30	 1005.19
     59.2490	 2281.00	 2197.70	-1294.03	 1005.06
     59.2750	 2222.00	 2194.52	-1349.86	 1004.93
     59.3010	 2194.00	 2191.43	-1374.77	 1004.80
     59.3270	 2181.00	 2188.43	-1384.76	 1004.68
     59.3530	 2253.00	 2185.51	-1309.85	 1004.57
     59.3790	 2324.00	 2182.68	-1236.02	 1004.46
     59.4050	 2175.00	 2179.94	-1382.28	 1004.36
     59.4310	 2241.00	 2177.29	-1313.63	 1004.26
     59.4570	 2188.00	 2174.73	-1364.07	 1004.17
     59.4830	 2213.00	 2172.26	-1336.60	 1004.08
     59.5090	 2190.00	 2169.88	-1357.22	 1004.00
     59.5350	 2175.00	 2167.59	-1369.93	 1003.92
     59.5610	 2165.00	 2165.40	-1377.73	 1003.84
     59.5870	 2242.00	 2163.29	-1298.63	 1003.78
     59.6130	 2224.00	 2161.28	-1314.62	 1003.71
     59.6390	 2172.00	 2159.36	-1364.70	 1003.65
     59.6650	 2215.00	 2157.53	-1319.87	 1003.60
     59.6910	 2242.00	 2155.80	-1291.14	 1003.55
     59.7170	 2200.00	 2154.16	-1331.50	 1003.50
     59.7430	 2169.00	 2152.62	-1360.96	 1003.46
     59.7690	 2178.00	 2151.17	-1350.51	 1003.43
     59.7950	 2153.00	 2149.82	-1374.15	 1003.39
     59.8210	 2142.00	 2148.56	-1383.90	 1003.37
     59.8470	 2135.00	 2147.40	-1389.74	 1003.34
     59.8730	 2097.00	 2146.34	-1426.67	 1003.32
     59.8990	 2144.00	 2145.37	-1378.71	 1003.31
     59.9250	 2126.00	 2144.50	-1395.84	 1003.30
     59.9510	 2186.00	 2143.74	-1335.07	 1003.29
     59.9770	 2117.00	 2143.07	-1403.41	 1003.29
     60.0030	 2189.00	 2142.50	-1330.84	 1003.29
     60.0290	 2247.00	 2142.03	-1272.37	 1003.29
     60.0550	 2223.00	 2141.67	-1296.01	 1003.30
     60.0810	 2156.00	 2141.41	-1362.74	 1003.31
     60.1070	 2148.00	 2141.25	-1370.59	 1003.33
     60.1330	 2158.00	 2141.20	-1360.53	 1003.35
     60.1590	 2129.00	 2141.25	-1389.59	 1003.37
     60.1850	 2118.00	 2141.41	-1400.74	 1003.39
     60.2110	 2172.00	 2141.67	-1347.01	 1003.42
     60.2370	 2143.00	 2142.05	-1376.39	 1003.46
     60.2630	 2177.00	 2142.54	-1342.87	 1003.49
     60.2890	 2204.00	 2143.14	-1316.47	 1003.53
     60.3150	 2180.00	 2143.85	-1341.19	 1003.57
     60.3410	 2173.00	 2144.68	-1349.01	 1003.62
     60.3670	 2128.00	 2145.62	-1394.96	 1003.67
     60.3930	 2118.00	 2146.69	-1406.02	 1003.72
     60.4190	 2174.00	 2147.87	-1351.21	 1003.78
     60.4450	 2145.00	 2149.18	-1381.52	 1003.83
     60.4710	 2112.00	 2150.61	-1415.95	 1003.89
     60.4970	 2185.00	 2152.18	-1344.52	 1003.96
     60.5230	 2174.00	 2153.87	-1357.21	 1004.02
     60.5490	 2154.00	 2155.70	-1379.04	 1004.09
     60.5750	 2152.00	 2157.67	-1383.01	 1004.16
     60.6010	 2141.00	 2159.78	-1396.12	 1004.23
     60.6270	 2153.00	 2162.04	-1386.37	 1004.31
     60.6530	 2130.00	 2164.44	-1411.78	 1004.39
     60.6790	 2134.00	 2167.00	-1410.34	 1004.47
     60.7050	 2151.00	 2169.72	-1396.06	 1004.55
     60.7310	 2126.00	 2172.61	-1423.94	 1004.64
     60.7570	 2181.00	 2175.66	-1372.00	 1004.72
     60.7830	 2192.00	 2178.89	-1364.23	 1004.81
     60.8090	 2171.00	 2182.31	-1388.65	 1004.90
     60.8350	 2164.00	 2185.92	-1399.26	 1005.00
     60.8610	 2164.00	 2189.73	-1403.07	 1005.09
     60.8870	 2148.00	 2193.75	-1423.08	 1005.19
     60.9130	 2152.00	 2197.98	-1423.32	 1005.29
     60.9390	 2188.00	 2202.45	-1391.79	 1005.39
     60.9650	 2153.00	 2207.16	-1431.50	 1005.49
     60.9910	 2151.00	 2212.12	-1438.46	 1005.59
     61.0170	 2114.00	 2217.35	-1480.69	 1005.70
     61.0430	 2095.00	 2222.87	-1505.21	 1005.80
     61.0690	 2143.00	 2228.68	-1463.02	 1005.91
     61.0950	 2168.00	 2234.82	-1444.15	 1006.02
     61.1210	 2169.00	 2241.29	-1449.63	 1006.13
     61.1470	 2201.00	 2248.12	-1424.46	 1006.24
     61.1730	 2193.00	 2255.34	-1439.68	 1006.35
     61.1990	 2150.00	 2262.98	-1490.31	 1006.47
     61.2250	 2165.00	 2271.05	-1483.39	 1006.58
     61.2510	 2128.00	 2279.60	-1528.93	 1006.70
     61.2770	 2146.00	 2288.65	-1519.99	 1006.82
     61.3030	 2197.00	 2298.26	-1478.60	 1006.93
     61.3290	 2205.00	 2308.46	-1480.80	 1007.05
     61.3550	 2170.00	 2319.30	-1526.64	 1007.17
     61.3810	 2164.00	 2330.84	-1544.17	 1007.29
     61.4070	 2234.00	 2343.12	-1486.46	 1007.41
     61.4330	 2295.00	 2356.23	-1438.56	 1007.53
     61.4590	 2315.00	 2370.22	-1432.55	 1007.65
     61.4850	 2258.00	 2385.17	-1504.51	 1007.77
     61.5110	 2305.00	 2401.18	-1473.51	 1007.90
     61.5370	 2394.00	 2418.33	-1401.66	 1008.02
     61.5630	 2386.00	 2436.72	-1428.06	 1008.14
     61.5890	 2406.00	 2456.48	-1427.81	 1008.26
     61.6150	 2460.00	 2477.72	-1395.05	 1008.39
     61.6410	 2490.00	 2500.57	-1387.91	 1008.51
     61.6670	 2505.00	 2525.19	-1397.53	 1008.63
     61.6930	 2578.00	 2551.72	-1351.06	 1008.75
     61.7190	 2629.00	 2580.33	-1328.67	 1008.88
     61.7450	 2617.00	 2611.20	-1371.54	 1009.00
     61.7710	 2631.00	 2644.49	-1390.83	 1009.12
     61.7970	 2715.00	 2680.40	-1342.74	 1009.24
     61.8230	 2773.00	 2719.10	-1323.44	 1009.36
     61.8490	 2835.00	 2760.77	-1303.10	 1009.49
     61.8750	 2878.00	 2805.54	-1304.87	 1009.61
     61.9010	 2954.00	 2853.53	-1276.87	 1009.73
     61.9270	 2967.00	 2904.81	-1315.15	 1009.85
     61.9530	 2922.00	 2959.36	-1414.69	 1009.97
     61.9790	 3024.00	 3017.04	-1370.37	 1010.08
     62.0050	 3067.00	 3077.61	-1387.95	 1010.20
     62.0310	 3188.00	 3140.64	-1329.98	 1010.32
     62.0570	 3209.00	 3205.49	-1373.83	 1010.43
     62.0830	 3202.00	 3271.30	-1446.63	 1010.55
     62.1090	 3275.00	 3336.95	-1439.29	 1010.66
     62.1350	 3311.00	 3401.11	-1467.44	 1010.78
     62.1610	 3414.00	 3462.19	-1425.53	 1010.89
     62.1870	 3408.00	 3518.54	-1487.87	 1011.00
     62.2130	 3491.00	 3568.42	-1454.76	 1011.11
     62.2390	 3614.00	 3610.24	-1373.57	 1011.22
     62.2650	 3585.00	 3642.58	-1434.91	 1011.32
     62.2910	 3542.00	 3664.41	-1499.75	 1011.43
     62.3170	 3528.00	 3675.08	-1524.42	 1011.53
     62.3430	 3635.00	 3674.41	-1416.74	 1011.64
     62.3690	 3638.00	 3662.61	-1401.94	 1011.74
     62.3950	 3628.00	 3640.27	-1389.60	 1011.84
     62.4210	 3615.00	 3608.27	-1370.61	 1011.93
     62.4470	 3656.00	 3567.74	-1289.08	 1012.03
     62.4730	 3608.00	 3519.94	-1289.28	 1012.13
     62.4990	 3543.00	 3466.23	-1300.57	 1012.22
     62.5250	 3485.00	 3408.03	-1300.36	 1012.31
     62.5510	 3515.00	 3346.72	-1209.05	 1012.40
     62.5770	 3455.00	 3283.62	-1205.96	 1012.49
     62.6030	 3441.00	 3219.93	-1156.27	 1012.57
     62.6290	 3248.00	 3156.68	-1286.01	 1012.65
     62.6550	 3177.00	 3094.73	-1295.07	 1012.74
     62.6810	 3172.00	 3034.77	-1240.10	 1012.82
     62.7070	 3129.00	 2977.26	-1225.60	 1012.89
     62.7330	 2992.00	 2922.57	-1307.91	 1012.97
     62.7590	 3003.00	 2870.88	-1245.22	 1013.04
     62.7850	 2998.00	 2822.30	-1201.63	 1013.11
     62.8110	 2856.00	 2776.80	-1298.13	 1013.18
     62.8370	 2803.00	 2734.33	-1308.66	 1013.24
     62.8630	 2722.00	 2694.78	-1350.11	 1013.31
     62.8890	 2695.00	 2658.01	-1340.35	 1013.37
     62.9150	 2654.00	 2623.85	-1347.19	 1013.43
     62.9410	 2638.00	 2592.15	-1331.49	 1013.48
     62.9670	 2578.00	 2562.72	-1362.06	 1013.53
     62.9930	 2412.00	 2535.41	-1500.75	 1013.58
     63.0190	 2438.00	 2510.04	-1449.38	 1013.63
     63.0450	 2445.00	 2486.47	-1418.81	 1013.68
     63.0710	 2387.00	 2464.55	-1454.88	 1013.72
     63.0970	 2408.00	 2444.14	-1413.48	 1013.76
     63.1230	 2397.00	 2425.12	-1405.45	 1013.79
     63.1490	 2335.00	 2407.37	-1449.70	 1013.83
     63.1750	 2295.00	 2390.78	-1473.12	 1013.86
     63.2010	 2232.00	 2375.27	-1520.61	 1013.89
     63.2270	 2309.00	 2360.74	-1429.08	 1013.91
     63.2530	 2271.00	 2347.11	-1453.44	 1013.93
     63.2790	 2277.00	 2334.30	-1434.64	 1013.95
     63.3050	 2298.00	 2322.26	-1401.60	 1013.97
     63.3310	 2301.00	 2310.91	-1387.25	 1013.98
     63.3570	 2315.00	 2300.21	-1362.55	 1013.99
     63.3830	 2273.00	 2290.11	-1394.44	 1013.99
     63.4090	 2264.00	 2280.55	-1393.88	 1014.00
     63.4350	 2231.00	 2271.50	-1417.83	 1013.99
     63.4610	 2275.00	 2262.92	-1365.26	 1013.99
     63.4870	 2276.00	 2254.78	-1356.11	 1013.98
     63.5130	 2237.00	 2247.04	-1387.38	 1013.97
     63.5390	 2269.00	 2239.68	-1348.02	 1013.96
     63.5650	 2259.00	 2232.67	-1351.01	 1013.94
     63.5910	 2256.00	 2226.00	-1347.33	 1013.92
     63.6170	 2291.00	 2219.62	-1305.96	 1013.89
     63.6430	 2293.00	 2213.54	-1297.88	 1013.86
     63.6690	 2222.00	 2207.73	-1363.07	 1013.83
     63.6950	 2215.00	 2202.17	-1364.51	 1013.80
     63.7210	 2264.00	 2196.85	-1310.19	 1013.76
     63.7470	 2235.00	 2191.76	-1334.10	 1013.71
     63.7730	 2165.00	 2186.89	-1399.22	 1013.67
     63.7990	 2105.00	 2182.21	-1454.55	 1013.61
     63.8250	 2136.00	 2177.73	-1419.06	 1013.56
     63.8510	 2210.00	 2173.43	-1340.76	 1013.50
     63.8770	 2201.00	 2169.30	-1345.63	 1013.44
     63.9030	 2164.00	 2165.33	-1378.67	 1013.37
     63.9290	 2131.00	 2161.53	-1407.87	 1013.30
     63.9550	 2125.00	 2157.87	-1410.21	 1013.23
     63.9810	 2145.00	 2154.36	-1386.70	 1013.15
     64.0070	 2184.00	 2150.99	-1344.33	 1013.07
     64.0330	 2228.00	 2147.75	-1297.09	 1012.98
     64.0590	 2218.00	 2144.64	-1303.98	 1012.90
     64.0850	 2228.00	 2141.65	-1290.99	 1012.80
     64.1110	 2252.00	 2138.78	-1264.11	 1012.70
     64.1370	 2165.00	 2136.02	-1348.36	 1012.60
     64.1630	 2115.00	 2133.37	-1395.71	 1012.50
     64.1890	 2176.00	 2130.83	-1332.16	 1012.39
     64.2150	 2184.00	 2128.39	-1321.72	 1012.27
     64.2410	 2190.00	 2126.05	-1313.38	 1012.15
     64.2670	 2159.00	 2123.21	-1341.55	 1012.03
     64.2930	 2147.00	 2121.06	-1351.40	 1011.91
     64.3190	 2181.00	 2119.00	-1315.34	 1011.77
     64.3450	 2131.00	 2117.03	-1363.37	 1011.64
     64.3710	 2142.00	 2115.14	-1350.48	 1011.50
     64.3970	 2131.00	 2113.05	-1359.38	 1011.36
     64.4230	 2137.00	 2111.33	-1351.66	 1011.21
     64.4490	 2152.00	 2109.69	-1335.02	 1011.06
     64.4750	 2116.00	 2108.12	-1369.46	 1010.90
     64.5010	 2097.00	 2106.63	-1386.97	 1010.74
     64.5270	 2160.00	 2105.21	-1322.55	 1010.58
     64.5530	 2178.00	 2103.86	-1303.20	 1010.41
     64.5790	 2139.00	 2102.59	-1340.92	 1010.23
     64.6050	 2180.00	 2101.38	-1298.71	 1010.06
     64.6310	 2183.00	 2100.23	-1294.57	 1009.87
     64.6570	 2137.00	 2099.15	-1339.48	 1009.69
     64.6830	 2130.00	 2098.13	-1345.47	 1009.50
     64.7090	 2088.00	 2097.17	-1386.51	 1009.30
     64.7350	 2094.00	 2096.27	-1379.61	 1009.10
     64.7610	 2130.00	 2095.43	-1342.76	 1008.90
     64.7870	 2066.00	 2094.64	-1405.98	 1008.69
     64.8130	 2131.00	 2093.91	-1340.24	 1008.48
     64.8390	 2100.00	 2093.23	-1370.56	 1008.26
     64.8650	 2050.00	 2092.60	-1419.93	 1008.04
     64.8910	 2070.00	 2092.02	-1399.36	 1007.82
     64.9170	 2092.00	 2091.49	-1376.82	 1007.59
     64.9430	 2041.00	 2091.00	-1427.34	 1007.35
     64.9690	 2099.00	 2090.57	-1368.90	 1007.11
     64.9950	 2081.00	 2090.17	-1386.51	 1006.87
     65.0210	 2006.00	 2089.82	-1461.16	 1006.62
     65.0470	 2015.00	 2089.51	-1451.84	 1006.37
     65.0730	 2072.00	 2089.24	-1394.57	 1006.11
     65.0990	 2056.00	 2089.00	-1410.34	 1005.85
     65.1250	 2024.00	 2088.80	-1442.14	 1005.59
     65.1510	 2077.00	 2088.64	-1388.98	 1005.32
     65.1770	 2039.00	 2088.51	-1426.85	 1005.05
     65.2030	 2092.00	 2088.42	-1373.75	 1004.77
     65.2290	 1991.00	 2088.35	-1474.69	 1004.48
     65.2550	 2017.00	 2088.31	-1448.65	 1004.20
     65.2810	 2081.00	 2088.30	-1384.64	 1003.91
     65.3070	 2094.00	 2088.32	-1371.66	 1003.61
     65.3330	 2063.00	 2088.36	-1402.70	 1003.31
     65.3590	 2019.00	 2088.42	-1446.76	 1003.01
     65.3850	 1986.00	 2088.51	-1479.85	 1002.70
     65.4110	 2054.00	 2088.62	-1411.95	 1002.39
     65.4370	 2121.00	 2088.74	-1345.08	 1002.07
     65.4630	 2136.00	 2088.88	-1330.22	 1001.75
     65.4890	 2069.00	 2089.03	-1397.37	 1001.42
     65.5150	 2060.00	 2089.20	-1406.54	 1001.09
     65.5410	 2068.00	 2089.39	-1398.72	 1000.76
     65.5670	 2081.00	 2089.58	-1385.92	 1000.42
     65.5930	 2062.00	 2089.78	-1405.12	 1000.08
     65.6190	 2131.00	 2089.99	-1336.33	  999.73
     65.6450	 2017.00	 2090.20	-1450.54	  999.38
     65.6710	 2088.00	 2090.42	-1379.76	  999.03
     65.6970	 1983.00	 2090.65	-1484.98	  998.67
     65.7230	 1967.00	 2090.87	-1501.21	  998.30
     65.7490	 2004.00	 2091.10	-1464.43	  997.94
     65.7750	 2035.00	 2091.32	-1433.66	  997.57
     65.8010	 2019.00	 2091.54	-1449.88	  997.19
     65.8270	 2017.00	 2091.75	-1452.09	  996.81
     65.8530	 2026.00	 2091.96	-1443.30	  996.43
     65.8790	 2047.00	 2092.17	-1422.50	  996.04
     65.9050	 2023.00	 2092.36	-1446.70	  995.65
     65.9310	 1956.00	 2092.54	-1513.88	  995.25
     65.9570	 2011.00	 2092.72	-1459.05	  994.85
     65.9830	 2028.00	 2092.88	-1442.21	  994.45
     66.0090	 2008.00	 2093.02	-1462.36	  994.04
     66.0350	 1945.00	 2093.15	-1525.49	  993.63
     66.0610	 2032.00	 2093.27	-1438.60	  993.22
     66.0870	 2017.00	 2093.36	-1453.70	  992.80
     66.1130	 2054.00	 2093.44	-1416.78	  992.38
     66.1390	 2038.00	 2093.50	-1432.83	  991.95
     66.1650	 2101.00	 2093.53	-1369.87	  991.52
     66.1910	 2100.00	 2093.55	-1370.89	  991.09
     66.2170	 2038.00	 2093.54	-1432.88	  990.65
     66.2430	 2085.00	 2093.51	-1385.84	  990.21
     66.2690	 2094.00	 2093.45	-1376.79	  989.77
     66.2950	 2086.00	 2093.37	-1384.70	  989.32
     66.3210	 2032.00	 2093.26	-1438.60	  988.87
     66.3470	 2039.00	 2093.12	-1431.46	  988.41
     66.3730	 2072.00	 2092.96	-1398.30	  987.95
     66.3990	 2115.00	 2092.77	-1355.10	  987.49
     66.4250	 2097.00	 2092.55	-1372.88	  987.03
     66.4510	 2064.00	 2092.30	-1405.63	  986.56
     66.4770	 2073.00	 2092.02	-1396.35	  986.09
     66.5030	 2049.00	 2091.71	-1420.04	  985.61
     66.5290	 2028.00	 2091.37	-1440.70	  985.13
     66.5550	 2059.00	 2090.99	-1409.33	  984.65
     66.5810	 2080.00	 2090.59	-1387.93	  984.17
     66.6070	 2068.00	 2090.16	-1399.50	  983.68
     66.6330	 2060.00	 2089.70	-1407.03	  983.19
     66.6590	 2050.00	 2089.20	-1416.54	  982.70
     66.6850	 2081.00	 2088.68	-1385.01	  982.20
     66.7110	 2099.00	 2088.12	-1366.46	  981.70
     66.7370	 2065.00	 2087.54	-1399.87	  981.20
     66.7630	 2094.00	 2086.92	-1370.26	  980.69
     66.7890	 2114.00	 2086.28	-1349.61	  980.18
     66.8150	 2107.00	 2085.60	-1355.94	  979.67
     66.8410	 2129.00	 2084.90	-1333.23	  979.16
     66.8670	 2109.00	 2084.17	-1352.50	  978.64
     66.8930	 2047.00	 2083.41	-1413.74	  978.12
     66.9190	 2075.00	 2082.62	-1384.96	  977.60
     66.9450	 2089.00	 2081.81	-1370.15	  977.07
     66.9710	 2106.00	 2080.97	-1352.31	  976.55
     66.9970	 2075.00	 2080.11	-1382.45	  976.02
     67.0230	 2105.00	 2079.23	-1351.56	  975.48
     67.0490	 2056.00	 2078.32	-1399.66	  974.95
     67.0750	 2028.00	 2077.39	-1426.73	  974.41
     67.1010	 2078.00	 2076.44	-1375.78	  973.87
     67.1270	 2059.00	 2075.47	-1393.81	  973.33
     67.1530	 2039.00	 2074.48	-1412.82	  972.79
     67.1790	 2053.00	 2073.48	-1397.82	  972.24
     67.2050	 2043.00	 2072.46	-1406.79	  971.69
     67.2310	 2039.00	 2071.42	-1409.76	  971.14
     67.2570	 2024.00	 2070.37	-1423.71	  970.59
     67.2830	 2080.00	 2069.31	-1366.65	  970.04
     67.3090	 2055.00	 2068.24	-1390.57	  969.48
     67.3350	 2038.00	 2067.15	-1406.49	  968.93
     67.3610	 2009.00	 2066.06	-1434.40	  968.37
     67.3870	 2089.00	 2064.96	-1353.30	  967.80
     67.4130	 2168.00	 2063.86	-1273.20	  967.24
     67.4390	 2073.00	 2062.75	-1367.09	  966.68
     67.4650	 2082.00	 2061.64	-1356.98	  966.11
     67.4910	 2150.00	 2060.53	-1287.87	  965.54
     67.5170	 2067.00	 2059.42	-1369.75	  964.97
     67.5430	 2002.00	 2058.31	-1433.64	  964.40
     67.5690	 2064.00	 2057.20	-1370.53	  963.83
     67.5950	 2069.00	 2056.09	-1364.43	  963.26
     67.6210	 2032.00	 2055.00	-1400.33	  962.68
     67.6470	 2070.00	 2053.90	-1361.24	  962.11
     67.6730	 2074.00	 2052.82	-1356.16	  961.53
     67.6990	 2022.00	 2051.75	-1407.08	  960.96
     67.7250	 1967.00	 2050.69	-1461.02	  960.38
     67.7510	 2068.00	 2049.64	-1358.97	  959.80
     67.7770	 2038.00	 2048.60	-1387.94	  959.22
     67.8030	 2140.00	 2047.58	-1284.91	  958.63
     67.8290	 2171.00	 2046.57	-1252.91	  958.05
     67.8550	 2040.00	 2045.59	-1382.92	  957.47
     67.8810	 2080.00	 2044.62	-1341.95	  956.89
     67.9070	 2157.00	 2043.67	-1264.01	  956.30
     67.9330	 2084.00	 2042.74	-1336.08	  955.72
     67.9590	 2123.00	 2041.84	-1296.17	  955.13
     67.9850	 2014.00	 2040.95	-1404.29	  954.55
     68.0110	 2036.00	 2040.10	-1381.43	  953.96
     68.0370	 2065.00	 2039.26	-1351.60	  953.37
     68.0630	 1999.00	 2038.46	-1416.80	  952.79
     68.0890	 2019.00	 2037.68	-1396.02	  952.20
     68.1150	 2060.00	 2036.93	-1354.27	  951.61
     68.1410	 2082.00	 2036.21	-1331.55	  951.03
     68.1670	 2091.00	 2035.52	-1321.86	  950.44
     68.1930	 2156.00	 2034.86	-1256.20	  949.85
     68.2190	 2100.00	 2034.24	-1311.57	  949.27
     68.2450	 2073.00	 2033.64	-1337.98	  948.68
     68.2710	 2083.00	 2033.08	-1327.42	  948.09
     68.2970	 2075.00	 2032.56	-1334.89	  947.51
     68.3230	 2053.00	 2032.06	-1356.40	  946.92
     68.3490	 2047.00	 2031.61	-1361.94	  946.34
     68.3750	 2137.00	 2031.19	-1271.52	  945.75
     68.4010	 2112.00	 2030.80	-1296.14	  945.17
     68.4270	 2051.00	 2030.45	-1356.79	  944.58
     68.4530	 2101.00	 2030.14	-1306.48	  944.00
     68.4790	 2071.00	 2029.87	-1336.20	  943.42
     68.5050	 2040.00	 2029.63	-1366.97	  942.84
     68.5310	 2035.00	 2029.43	-1371.77	  942.26
     68.5570	 2075.00	 2029.27	-1331.61	  941.68
     68.5830	 2082.00	 2029.15	-1324.49	  941.10
     68.6090	 2080.00	 2029.07	-1326.40	  940.52
     68.6350	 2089.00	 2029.02	-1317.36	  939.95
     68.6610	 2071.00	 2029.01	-1335.35	  939.37
     68.6870	 2028.00	 2029.05	-1378.38	  938.80
     68.7130	 2052.00	 2029.12	-1354.45	  938.23
     68.7390	 2064.00	 2029.23	-1342.56	  937.66
     68.7650	 2064.00	 2029.37	-1342.71	  937.09
     68.7910	 2107.00	 2029.56	-1299.90	  936.52
     68.8170	 2001.00	 2029.78	-1406.12	  935.95
     68.8430	 2045.00	 2030.04	-1362.38	  935.39
     68.8690	 2085.00	 2030.34	-1322.68	  934.83
     68.8950	 2012.00	 2030.68	-1396.01	  934.27
     68.9210	 2028.00	 2031.05	-1380.38	  933.71
     68.9470	 2104.00	 2031.45	-1304.79	  933.15
     68.9730	 2111.00	 2031.90	-1298.23	  932.59
     68.9990	 2075.00	 2032.37	-1334.71	  932.04
     69.0250	 2031.00	 2032.88	-1379.22	  931.49
     69.0510	 2028.00	 2033.43	-1382.76	  930.94
     69.0770	 2093.00	 2034.00	-1318.34	  930.39
     69.1030	 2111.00	 2034.61	-1300.95	  929.85
     69.1290	 2096.00	 2035.25	-1316.59	  929.31
     69.1550	 2122.00	 2035.92	-1291.26	  928.77
     69.1810	 2113.00	 2036.62	-1300.96	  928.23
     69.2070	 2083.00	 2037.35	-1331.69	  927.70
     69.2330	 2121.00	 2038.10	-1294.44	  927.16
     69.2590	 2079.00	 2038.88	-1337.22	  926.64
     69.2850	 2010.00	 2039.69	-1407.03	  926.11
     69.3110	 2033.00	 2040.52	-1384.86	  925.58
     69.3370	 2040.00	 2041.37	-1378.71	  925.06
     69.3630	 2027.00	 2042.25	-1392.58	  924.55
     69.3890	 2046.00	 2043.14	-1374.48	  924.03
     69.4150	 2104.00	 2044.05	-1317.39	  923.52
     69.4410	 2079.00	 2044.99	-1343.32	  923.01
     69.4670	 2067.00	 2045.93	-1356.27	  922.50
     69.4930	 2077.00	 2046.90	-1347.23	  922.00
     69.5190	 2093.00	 2047.87	-1332.21	  921.50
     69.5450	 2114.00	 2048.86	-1312.20	  921.01
     69.5710	 2077.00	 2049.86	-1350.20	  920.52
     69.5970	 2067.00	 2050.87	-1361.20	  920.03
     69.6230	 2148.00	 2051.88	-1281.22	  919.54
     69.6490	 2026.00	 2052.90	-1404.24	  919.06
     69.6750	 2018.00	 2053.93	-1413.26	  918.58
     69.7010	 2081.00	 2054.96	-1351.29	  918.11
     69.7270	 2053.00	 2055.98	-1380.32	  917.64
     69.7530	 2019.00	 2057.01	-1415.35	  917.17
     69.7790	 2015.00	 2058.04	-1420.38	  916.71
     69.8050	 2046.00	 2059.06	-1390.40	  916.25
     69.8310	 2127.00	 2060.08	-1310.41	  915.79
     69.8570	 2083.00	 2061.09	-1355.42	  915.34
     69.8830	 2047.00	 2062.08	-1392.42	  914.89
     69.9090	 2067.00	 2063.07	-1373.41	  914.45
     69.9350	 2065.00	 2064.05	-1376.39	  914.01
     69.9610	 2039.00	 2065.01	-1403.35	  913.58
     69.9870	 2065.00	 2065.96	-1378.30	  913.15
     70.0130	 2062.00	 2066.89	-1382.22	  912.72
     70.0390	 2059.00	 2067.80	-1386.13	  912.30
     70.0650	 2058.00	 2068.68	-1388.02	  911.88
     70.0910	 2041.00	 2069.55	-1405.89	  911.47
     70.1170	 2023.00	 2070.39	-1424.73	  911.06
     70.1430	 2075.00	 2071.21	-1373.54	  910.66
     70.1690	 2133.00	 2072.00	-1316.33	  910.26
     70.1950	 2080.00	 2072.75	-1370.09	  909.87
     70.2210	 2096.00	 2073.48	-1354.82	  909.48
     70.2470	 2086.00	 2074.18	-1365.52	  909.09
     70.2730	 2082.00	 2074.85	-1370.18	  908.71
     70.2990	 2126.00	 2075.48	-1326.81	  908.34
     70.3250	 2139.00	 2076.07	-1314.41	  907.97
     70.3510	 2148.00	 2076.63	-1305.96	  907.60
     70.3770	 2012.00	 2077.15	-1442.48	  907.24
     70.4030	 2021.00	 2077.63	-1433.96	  906.89
     70.4290	 2140.00	 2078.07	-1315.40	  906.54
     70.4550	 2044.00	 2078.46	-1411.80	  906.19
     70.4810	 2044.00	 2078.82	-1412.16	  905.85
     70.5070	 2133.00	 2079.13	-1323.47	  905.52
     70.5330	 2112.00	 2079.40	-1344.74	  905.19
     70.5590	 2089.00	 2079.62	-1367.96	  904.87
     70.5850	 2020.00	 2079.80	-1437.14	  904.55
     70.6110	 2037.00	 2079.93	-1420.27	  904.24
     70.6370	 2025.00	 2080.02	-1432.35	  903.93
     70.6630	 1992.00	 2080.06	-1465.39	  903.63
     70.6890	 2030.00	 2080.05	-1427.38	  903.33
     70.7150	 2082.00	 2079.99	-1375.33	  903.04
     70.7410	 2111.00	 2079.88	-1346.22	  902.75
     70.7670	 2032.00	 2079.73	-1425.07	  902.48
     70.7930	 2057.00	 2079.53	-1399.87	  902.20
     70.8190	 2064.00	 2079.28	-1392.62	  901.93
     70.8450	 2088.00	 2078.99	-1368.32	  901.67
     70.8710	 2049.00	 2078.64	-1406.98	  901.41
     70.8970	 1986.00	 2078.25	-1469.59	  901.16
     70.9230	 2085.00	 2077.81	-1370.15	  900.92
     70.9490	 2043.00	 2077.33	-1411.67	  900.68
     70.9750	 2120.00	 2076.80	-1334.14	  900.44
     71.0010	 2091.00	 2076.22	-1362.56	  900.21
     71.0270	 2082.00	 2075.60	-1370.94	  899.99
     71.0530	 2044.00	 2074.94	-1408.28	  899.78
     71.0790	 2102.00	 2074.23	-1349.57	  899.57
     71.1050	 2066.00	 2073.48	-1384.82	  899.36
     71.1310	 2068.00	 2072.69	-1382.03	  899.16
     71.1570	 2053.00	 2071.86	-1396.20	  898.97
     71.1830	 2035.00	 2070.99	-1413.33	  898.78
     71.2090	 2117.00	 2070.09	-1330.42	  898.60
     71.2350	 2075.00	 2069.14	-1371.48	  898.43
     71.2610	 2030.00	 2068.16	-1415.50	  898.26
     71.2870	 2047.00	 2067.15	-1397.49	  898.10
     71.3130	 2037.00	 2066.11	-1406.44	  897.94
     71.3390	 2038.00	 2065.03	-1404.37	  897.79
     71.3650	 2058.00	 2063.92	-1383.26	  897.65
     71.3910	 1952.00	 2062.79	-1488.13	  897.51
     71.4170	 1963.00	 2061.63	-1475.97	  897.38
     71.4430	 2039.00	 2060.45	-1398.78	  897.25
     71.4690	 2042.00	 2059.24	-1394.57	  897.13
     71.4950	 2000.00	 2058.01	-1435.34	  897.02
     71.5210	 2078.00	 2056.76	-1356.09	  896.91
     71.5470	 2048.00	 2055.49	-1384.83	  896.81
     71.5730	 1966.00	 2054.21	-1465.54	  896.72
     71.5990	 2004.00	 2052.91	-1426.24	  896.63
     71.6250	 2054.00	 2051.59	-1374.93	  896.55
     71.6510	 2065.00	 2050.27	-1362.61	  896.47
     71.6770	 2085.00	 2048.94	-1341.27	  896.40
     71.7030	 2101.00	 2047.60	-1323.93	  896.34
     71.7290	 2082.00	 2046.25	-1341.59	  896.28
     71.7550	 2076.00	 2044.90	-1346.24	  896.23
     71.7810	 2016.00	 2043.55	-1404.88	  896.18
     71.8070	 1975.00	 2042.19	-1444.53	  896.14
     71.8330	 1974.00	 2040.84	-1444.18	  896.11
     71.8590	 1977.00	 2039.49	-1439.83	  896.08
     71.8850	 1982.00	 2038.14	-1433.48	  896.06
     71.9110	 1975.00	 2036.80	-1439.14	  896.05
     71.9370	 2030.00	 2035.47	-1382.81	  896.04
     71.9630	 2007.00	 2034.15	-1404.49	  896.04
     71.9890	 1953.00	 2032.84	-1457.18	  896.04
     72.0150	 1987.00	 2031.54	-1421.88	  896.05
     72.0410	 2014.00	 2030.26	-1393.60	  896.07
     72.0670	 2033.00	 2028.99	-1373.33	  896.09
     72.0930	 2002.00	 2027.74	-1403.08	  896.11
     72.1190	 2019.00	 2026.51	-1384.85	  896.15
     72.1450	 2005.00	 2025.30	-1397.64	  896.19
     72.1710	 1987.00	 2024.11	-1414.45	  896.23
     72.1970	 2077.00	 2022.95	-1323.29	  896.28
     72.2230	 2051.00	 2021.81	-1348.14	  896.34
     72.2490	 1988.00	 2020.69	-1410.03	  896.40
     72.2750	 1982.00	 2019.61	-1414.94	  896.47
     72.3010	 1969.00	 2018.55	-1426.89	  896.55
     72.3270	 1964.00	 2017.52	-1430.86	  896.63
     72.3530	 1961.00	 2016.53	-1432.86	  896.71
     72.3790	 2006.00	 2015.56	-1386.90	  896.81
     72.4050	 1974.00	 2014.63	-1417.97	  896.90
     72.4310	 2001.00	 2013.73	-1390.07	  897.01
     72.4570	 1983.00	 2012.87	-1407.21	  897.11
     72.4830	 2025.00	 2012.05	-1364.39	  897.23
     72.5090	 2019.00	 2011.26	-1369.60	  897.35
     72.5350	 2071.00	 2010.51	-1316.85	  897.47
     72.5610	 1977.00	 2009.81	-1410.14	  897.60
     72.5870	 2028.00	 2009.14	-1358.48	  897.74
     72.6130	 1973.00	 2008.51	-1412.85	  897.88
     72.6390	 1918.00	 2007.93	-1467.26	  898.03
     72.6650	 1965.00	 2007.39	-1419.72	  898.18
     72.6910	 1989.00	 2006.89	-1395.22	  898.34
     72.7170	 1962.00	 2006.43	-1421.77	  898.50
     72.7430	 2034.00	 2006.03	-1349.36	  898.67
     72.7690	 1965.00	 2005.66	-1418.00	  898.84
     72.7950	 1961.00	 2005.35	-1421.68	  899.01
     72.8210	 2001.00	 2005.08	-1381.42	  899.20
     72.8470	 2022.00	 2004.86	-1360.19	  899.38
     72.8730	 1987.00	 2004.69	-1395.02	  899.58
     72.8990	 1956.00	 2004.56	-1425.90	  899.77
     72.9250	 2028.00	 2004.49	-1353.83	  899.97
     72.9510	 1985.00	 2004.47	-1396.80	  900.18
     72.9770	 1988.00	 2004.50	-1393.83	  900.39
     73.0030	 2013.00	 2004.58	-1368.91	  900.60
     73.0290	 1994.00	 2004.71	-1388.05	  900.82
     73.0550	 1929.00	 2004.90	-1453.23	  901.05
     73.0810	 2000.00	 2005.14	-1382.47	  901.27
     73.1070	 2050.00	 2005.43	-1332.77	  901.51
     73.1330	 2069.00	 2005.78	-1314.12	  901.74
     73.1590	 1995.00	 2006.19	-1388.52	  901.98
     73.1850	 1946.00	 2006.65	-1437.99	  902.23
     73.2110	 2059.00	 2007.17	-1325.51	  902.47
     73.2370	 2075.00	 2007.75	-1310.09	  902.73
     73.2630	 2007.00	 2008.39	-1378.73	  902.98
     73.2890	 2018.00	 2009.09	-1368.43	  903.24
     73.3150	 1974.00	 2009.85	-1413.19	  903.50
     73.3410	 2042.00	 2010.68	-1346.02	  903.77
     73.3670	 2013.00	 2011.57	-1375.91	  904.04
     73.3930	 2013.00	 2012.53	-1376.87	  904.31
     73.4190	 1990.00	 2013.56	-1400.90	  904.59
     73.4450	 2029.00	 2014.66	-1363.00	  904.87
     73.4710	 2013.00	 2015.83	-1380.17	  905.15
     73.4970	 2039.00	 2017.08	-1355.42	  905.44
     73.5230	 2051.00	 2018.41	-1344.75	  905.73
     73.5490	 2018.00	 2019.82	-1379.15	  906.02
     73.5750	 1951.00	 2021.31	-1447.65	  906.31
     73.6010	 2033.00	 2022.89	-1367.23	  906.61
     73.6270	 1987.00	 2024.57	-1414.90	  906.91
     73.6530	 2059.00	 2026.34	-1344.67	  907.21
     73.6790	 2010.00	 2028.21	-1395.55	  907.52
     73.7050	 2079.00	 2030.19	-1328.53	  907.82
     73.7310	 2003.00	 2032.29	-1406.63	  908.13
     73.7570	 2013.00	 2034.51	-1398.84	  908.44
     73.7830	 2041.00	 2036.85	-1373.19	  908.76
     73.8090	 2010.00	 2039.34	-1406.67	  909.07
     73.8350	 2073.00	 2041.96	-1346.30	  909.39
     73.8610	 2081.00	 2044.75	-1341.09	  909.70
     73.8870	 2103.00	 2047.70	-1322.04	  910.02
     73.9130	 2043.00	 2050.83	-1385.17	  910.34
     73.9390	 2030.00	 2054.16	-1401.49	  910.67
     73.9650	 2085.00	 2057.69	-1350.02	  910.99
     73.9910	 2154.00	 2061.44	-1284.77	  911.31
     74.0170	 2090.00	 2065.43	-1352.76	  911.64
     74.0430	 2107.00	 2069.67	-1340.01	  911.96
     74.0690	 2091.00	 2074.19	-1360.53	  912.29
     74.0950	 2072.00	 2079.00	-1384.34	  912.62
     74.1210	 2046.00	 2084.13	-1415.46	  912.95
     74.1470	 2103.00	 2089.59	-1363.92	  913.28
     74.1730	 2187.00	 2095.39	-1285.73	  913.60
     74.1990	 2176.00	 2101.57	-1302.91	  913.93
     74.2250	 2120.00	 2108.13	-1365.47	  914.26
     74.2510	 2129.00	 2115.09	-1363.43	  914.59
     74.2770	 2161.00	 2122.44	-1338.78	  914.92
     74.3030	 2223.00	 2130.20	-1284.53	  915.25
     74.3290	 2178.00	 2138.33	-1337.67	  915.58
     74.3550	 2114.00	 2146.82	-1410.15	  915.90
     74.3810	 2125.00	 2155.61	-1407.95	  916.23
     74.4070	 2182.00	 2164.64	-1359.98	  916.56
     74.4330	 2216.00	 2173.83	-1335.16	  916.88
     74.4590	 2239.00	 2183.05	-1321.38	  917.21
     74.4850	 2271.00	 2192.16	-1298.50	  917.53
     74.5110	 2229.00	 2201.01	-1349.35	  917.85
     74.5370	 2170.00	 2209.42	-1416.75	  918.17
     74.5630	 2154.00	 2217.19	-1440.52	  918.49
     74.5890	 2179.00	 2224.14	-1422.47	  918.81
     74.6150	 2181.00	 2230.09	-1426.43	  919.12
     74.6410	 2172.00	 2234.92	-1440.26	  919.43
     74.6670	 2202.00	 2238.50	-1413.84	  919.74
     74.6930	 2215.00	 2240.79	-1403.12	  920.05
     74.7190	 2223.00	 2241.75	-1396.08	  920.36
     74.7450	 2265.00	 2241.40	-1353.74	  920.66
     74.7710	 2261.00	 2239.81	-1356.15	  920.96
     74.7970	 2262.00	 2237.05	-1352.39	  921.26
     74.8230	 2207.00	 2233.23	-1403.56	  921.56
     74.8490	 2127.00	 2228.44	-1478.78	  921.85
     74.8750	 2140.00	 2222.82	-1460.15	  922.14
     74.9010	 2185.00	 2216.48	-1408.82	  922.43
     74.9270	 2196.00	 2209.57	-1390.91	  922.71
     74.9530	 2208.00	 2202.22	-1371.55	  922.99
     74.9790	 2178.00	 2194.55	-1393.89	  923.27
     75.0050	 2234.00	 2186.71	-1330.05	  923.54
     75.0310	 2216.00	 2178.80	-1340.14	  923.81
     75.0570	 2184.00	 2170.94	-1364.28	  924.07
     75.0830	 2193.00	 2163.21	-1347.55	  924.33
     75.1090	 2140.00	 2155.70	-1393.03	  924.58
     75.1350	 2173.00	 2148.45	-1352.79	  924.84
     75.1610	 2140.00	 2141.51	-1378.85	  925.08
     75.1870	 2112.00	 2134.91	-1400.25	  925.32
     75.2130	 2145.00	 2128.67	-1361.01	  925.56
     75.2390	 2200.00	 2122.79	-1300.13	  925.79
     75.2650	 2140.00	 2117.26	-1354.60	  926.02
     75.2910	 2140.00	 2112.09	-1349.43	  926.24
     75.3170	 2088.00	 2107.26	-1396.60	  926.46
     75.3430	 2101.00	 2102.75	-1379.09	  926.67
     75.3690	 2090.00	 2098.55	-1385.89	  926.87
     75.3950	 2087.00	 2094.64	-1384.97	  927.07
     75.4210	 2092.00	 2090.99	-1376.33	  927.26
     75.4470	 2131.00	 2087.61	-1333.94	  927.45
     75.4730	 2056.00	 2084.46	-1405.79	  927.63
     75.4990	 2125.00	 2081.52	-1333.86	  927.81
     75.5250	 2082.00	 2078.79	-1374.13	  927.97
     75.5510	 2043.00	 2076.25	-1410.59	  928.14
     75.5770	 2101.00	 2073.89	-1350.22	  928.29
     75.6030	 2005.00	 2071.68	-1444.02	  928.44
     75.6290	 2065.00	 2069.63	-1381.97	  928.58
     75.6550	 2053.00	 2067.72	-1392.05	  928.71
     75.6810	 2017.00	 2065.93	-1426.27	  928.84
     75.7070	 2059.00	 2064.27	-1382.61	  928.96
     75.7330	 2066.00	 2062.72	-1374.06	  929.07
     75.7590	 2138.00	 2061.27	-1300.61	  929.18
     75.7850	 2072.00	 2059.93	-1365.26	  929.28
     75.8110	 2000.00	 2058.67	-1436.01	  929.36
     75.8370	 2126.00	 2057.50	-1308.84	  929.45
     75.8630	 2116.00	 2056.41	-1317.75	  929.52
     75.8890	 2159.00	 2055.40	-1273.74	  929.59
     75.9150	 2044.00	 2054.46	-1387.80	  929.64
     75.9410	 2044.00	 2053.59	-1386.93	  929.69
     75.9670	 2043.00	 2052.78	-1387.12	  929.73
     75.9930	 2052.00	 2052.04	-1377.38	  929.77
     76.0190	 2010.00	 2051.35	-1418.69	  929.79
     76.0450	 2040.00	 2050.72	-1388.06	  929.80
     76.0710	 1986.00	 2050.15	-1441.48	  929.81
     76.0970	 2048.00	 2049.62	-1378.96	  929.81
     76.1230	 2029.00	 2049.15	-1397.48	  929.80
     76.1490	 2113.00	 2048.72	-1313.06	  929.78
     76.1750	 2070.00	 2048.34	-1355.67	  929.75
     76.2010	 2031.00	 2048.00	-1394.34	  929.71
     76.2270	 2045.00	 2047.71	-1380.04	  929.66
     76.2530	 1968.00	 2047.45	-1456.79	  929.60
     76.2790	 2065.00	 2047.24	-1359.58	  929.53
     76.3050	 2002.00	 2047.07	-1422.41	  929.46
     76.3310	 2096.00	 2046.94	-1328.27	  929.37
     76.3570	 2089.00	 2046.84	-1335.18	  929.27
     76.3830	 2143.00	 2046.78	-1281.11	  929.17
     76.4090	 2091.00	 2046.75	-1333.09	  929.05
     76.4350	 2044.00	 2046.76	-1380.10	  928.93
     76.4610	 2054.00	 2046.80	-1370.14	  928.79
     76.4870	 2087.00	 2046.88	-1337.21	  928.65
     76.5130	 2042.00	 2046.98	-1382.32	  928.49
     76.5390	 2076.00	 2047.12	-1348.45	  928.32
     76.5650	 2025.00	 2047.28	-1399.62	  928.15
     76.5910	 2034.00	 2047.48	-1390.82	  927.96
     76.6170	 1997.00	 2047.70	-1428.04	  927.77
     76.6430	 2020.00	 2047.95	-1405.29	  927.56
     76.6690	 2083.00	 2048.23	-1342.57	  927.34
     76.6950	 2072.00	 2048.53	-1353.87	  927.12
     76.7210	 2045.00	 2048.86	-1381.20	  926.88
     76.7470	 2118.00	 2049.21	-1308.55	  926.63
     76.7730	 2072.00	 2049.59	-1354.92	  926.37
     76.7990	 2060.00	 2049.98	-1367.32	  926.10
     76.8250	 2060.00	 2050.40	-1367.74	  925.82
     76.8510	 2050.00	 2050.84	-1378.17	  925.53
     76.8770	 2062.00	 2051.29	-1366.63	  925.23
     76.9030	 2058.00	 2051.76	-1371.10	  924.92
     76.9290	 2061.00	 2052.26	-1368.59	  924.60
     76.9550	 2057.00	 2052.76	-1373.10	  924.27
     76.9810	 2083.00	 2053.28	-1347.62	  923.93
     77.0070	 2089.00	 2053.82	-1342.15	  923.58
     77.0330	 2020.00	 2054.36	-1411.70	  923.22
     77.0590	 2032.00	 2054.92	-1400.26	  922.85
     77.0850	 2075.00	 2055.49	-1357.82	  922.46
     77.1110	 2057.00	 2056.06	-1376.40	  922.07
     77.1370	 2076.00	 2056.64	-1357.98	  921.67
     77.1630	 2076.00	 2057.23	-1358.57	  921.26
     77.1890	 2050.00	 2057.82	-1385.16	  920.83
     77.2150	 2093.00	 2058.42	-1342.76	  920.40
     77.2410	 2102.00	 2059.02	-1334.35	  919.96
     77.2670	 2060.00	 2059.61	-1376.95	  919.51
     77.2930	 2071.00	 2060.21	-1366.54	  919.04
     77.3190	 2057.00	 2060.80	-1381.13	  918.57
     77.3450	 2036.00	 2061.38	-1402.72	  918.09
     77.3710	 2076.00	 2061.96	-1363.30	  917.60
     77.3970	 2074.00	 2062.54	-1365.87	  917.10
     77.4230	 2041.00	 2063.10	-1399.44	  916.60
     77.4490	 2038.00	 2063.65	-1402.99	  916.08
     77.4750	 2068.00	 2064.19	-1373.53	  915.55
     77.5010	 2070.00	 2064.71	-1372.05	  915.02
     77.5270	 2079.00	 2065.22	-1363.55	  914.47
     77.5530	 2059.00	 2065.71	-1384.04	  913.92
     77.5790	 2051.00	 2066.17	-1392.51	  913.36
     77.6050	 2046.00	 2066.62	-1397.96	  912.79
     77.6310	 2102.00	 2067.04	-1342.38	  912.22
     77.6570	 2042.00	 2067.44	-1402.77	  911.64
     77.6830	 2068.00	 2067.81	-1377.14	  911.05
     77.7090	 2049.00	 2068.15	-1396.48	  910.45
     77.7350	 2096.00	 2068.45	-1349.79	  909.84
     77.7610	 2065.00	 2068.73	-1381.07	  909.23
     77.7870	 2028.00	 2068.97	-1418.31	  908.61
     77.8130	 2006.00	 2069.17	-1440.51	  907.99
     77.8390	 2051.00	 2069.34	-1395.68	  907.36
     77.8650	 2053.00	 2069.46	-1393.80	  906.72
     77.8910	 1997.00	 2069.55	-1449.88	  906.08
     77.9170	 2022.00	 2069.59	-1424.92	  905.43
     77.9430	 2039.00	 2069.58	-1407.92	  904.78
     77.9690	 2097.00	 2069.53	-1349.86	  904.12
     77.9950	 2033.00	 2069.42	-1413.76	  903.46
     78.0210	 2124.00	 2069.27	-1322.61	  902.79
     78.0470	 2005.00	 2069.06	-1441.40	  902.12
     78.0730	 2041.00	 2068.80	-1405.14	  901.45
     78.0990	 2032.00	 2068.49	-1413.82	  900.77
     78.1250	 2038.00	 2068.12	-1407.45	  900.10
     78.1510	 2064.00	 2067.68	-1381.02	  899.41
     78.1770	 2036.00	 2067.19	-1408.53	  898.73
     78.2030	 2015.00	 2066.64	-1428.98	  898.05
     78.2290	 2078.00	 2066.03	-1365.36	  897.36
     78.2550	 2011.00	 2065.35	-1431.68	  896.68
     78.2810	 2065.00	 2064.60	-1376.94	  895.99
     78.3070	 1982.00	 2063.79	-1459.13	  895.30
     78.3330	 2115.00	 2062.92	-1325.25	  894.62
     78.3590	 2056.00	 2061.97	-1383.31	  893.93
     78.3850	 2075.00	 2060.96	-1363.29	  893.25
     78.4110	 2076.00	 2059.87	-1361.21	  892.57
     78.4370	 2160.00	 2058.72	-1276.05	  891.89
     78.4630	 2032.00	 2057.49	-1402.83	  891.22
     78.4890	 2056.00	 2056.19	-1377.53	  890.54
     78.5150	 2042.00	 2054.82	-1390.16	  889.88
     78.5410	 2049.00	 2053.38	-1381.72	  889.21
     78.5670	 2080.00	 2051.86	-1349.20	  888.56
     78.5930	 2017.00	 2050.27	-1410.61	  887.90
     78.6190	 2060.00	 2048.61	-1365.95	  887.26
     78.6450	 2073.00	 2046.88	-1351.21	  886.62
     78.6710	 1948.00	 2045.07	-1474.40	  885.99
     78.6970	 2051.00	 2043.19	-1369.52	  885.37
     78.7230	 2061.00	 2041.23	-1357.57	  884.76
     78.7490	 2048.00	 2039.21	-1368.54	  884.15
     78.7750	 2032.00	 2037.11	-1382.44	  883.56
     78.8010	 2050.00	 2034.94	-1362.28	  882.98
     78.8270	 1972.00	 2032.70	-1438.04	  882.41
     78.8530	 2049.00	 2030.39	-1358.73	  881.85
     78.8790	 2058.00	 2028.01	-1347.35	  881.30
     78.9050	 2090.00	 2025.57	-1312.90	  880.77
     78.9310	 2049.00	 2023.06	-1351.39	  880.26
     78.9570	 1999.00	 2020.48	-1398.82	  879.76
     78.9830	 2009.00	 2017.84	-1386.18	  879.27
     79.0090	 2063.00	 2015.14	-1329.47	  878.81
     79.0350	 2025.00	 2012.37	-1364.71	  878.36
     79.0610	 1996.00	 2009.55	-1390.88	  877.93
     79.0870	 1986.00	 2006.67	-1398.00	  877.52
     79.1130	 2075.00	 2003.73	-1306.07	  877.13
     79.1390	 2098.00	 2000.74	-1280.08	  876.77
     79.1650	 2001.00	 1997.70	-1374.03	  876.42
     79.1910	 2028.00	 1994.60	-1343.94	  876.10
     79.2170	 2020.00	 1991.46	-1348.80	  875.81
     79.2430	 1982.00	 1988.28	-1383.61	  875.54
     79.2690	 1988.00	 1985.05	-1374.38	  875.29
     79.2950	 1993.00	 1981.78	-1366.12	  875.08
     79.3210	 2025.00	 1978.47	-1330.81	  874.89
     79.3470	 1948.00	 1975.13	-1404.46	  874.73
     79.3730	 1929.00	 1971.75	-1420.09	  874.61
     79.3990	 1948.00	 1968.34	-1397.68	  874.51
     79.4250	 1908.00	 1964.91	-1434.24	  874.45
     79.4510	 1935.00	 1961.44	-1403.78	  874.43
     79.4770	 1974.00	 1957.96	-1361.30	  874.44
     79.5030	 1929.00	 1954.46	-1402.80	  874.48
     79.5290	 1919.00	 1950.94	-1409.28	  874.57
     79.5550	 1946.00	 1947.41	-1378.75	  874.69
     79.5810	 1901.00	 1943.87	-1420.20	  874.85
     79.6070	 1903.00	 1940.32	-1414.66	  875.06
     79.6330	 1917.00	 1936.77	-1397.10	  875.31
     79.6590	 1914.00	 1933.21	-1396.55	  875.60
     79.6850	 1968.00	 1929.66	-1339.00	  875.94
     79.7110	 1990.00	 1926.11	-1313.45	  876.33
     79.7370	 1938.00	 1922.58	-1361.91	  876.77
     79.7630	 1889.00	 1919.05	-1407.39	  877.25
     79.7890	 1920.00	 1915.54	-1372.88	  877.79
     79.8150	 1928.00	 1912.05	-1361.39	  878.38
     79.8410	 1892.00	 1908.58	-1393.92	  879.03
     79.8670	 1909.00	 1905.14	-1373.47	  879.73
     18.2352	        	        	        	        	       0	(  1  1  1)	  0  1
     18.2814	        	        	        	        	       0	(  1  1  1)	  0  2
     29.9938	        	        	        	        	       0	(  2  2  0)	  0  1
     30.0708	        	        	        	        	       0	(  2  2  0)	  0  2
     35.3276	        	        	        	        	       0	(  3  1  1)	  0  1
     35.4191	        	        	        	        	       0	(  3  1  1)	  0  2
     36.9221	        	        	        	        	    -344	(  1  1  1)	  0  1
     36.9539	        	        	        	        	       0	(  2  2  2)	  0  1
     37.0182	        	        	        	        	    -344	(  1  1  1)	  0  2
     37.0500	        	        	        	        	       0	(  2  2  2)	  0  2
     42.8949	        	        	        	        	    -344	(  2  0  0)	  0  1
     42.9323	        	        	        	        	       0	(  4  0  0)	  0  1
     43.0079	        	        	        	        	    -344	(  2  0  0)	  0  2
     43.0454	        	        	        	        	       0	(  4  0  0)	  0  2
     47.0046	        	        	        	        	       0	(  3  3  1)	  0  1
     47.1297	        	        	        	        	       0	(  3  3  1)	  0  2
     53.2561	        	        	        	        	       0	(  4  2  2)	  0  1
     53.4003	        	        	        	        	       0	(  4  2  2)	  0  2
     56.7688	        	        	        	        	       0	(  3  3  3)	  0  1
     56.7688	        	        	        	        	       0	(  5  1  1)	  0  1
     56.9242	        	        	        	        	       0	(  3  3  3)	  0  2
     56.9242	        	        	        	        	       0	(  5  1  1)	  0  2
     62.2764	        	        	        	        	    -344	(  2  2  0)	  0  1
     62.3339	        	        	        	        	       0	(  4  4  0)	  0  1
     62.4502	        	        	        	        	    -344	(  2  2  0)	  0  2
     62.5079	        	        	        	        	       0	(  4  4  0)	  0  2
     65.5374	        	        	        	        	       0	(  5  3  1)	  0  1
     65.7226	        	        	        	        	       0	(  5  3  1)	  0  2
     66.5868	        	        	        	        	       0	(  4  4  2)	  0  1
     66.7758	        	        	        	        	       0	(  4  4  2)	  0  2
     70.7070	        	        	        	        	       0	(  6  2  0)	  0  1
     70.9112	        	        	        	        	       0	(  6  2  0)	  0  2
     73.7292	        	        	        	        	       0	(  5  3  3)	  0  1
     73.9449	        	        	        	        	       0	(  5  3  3)	  0  2
     74.6533	        	        	        	        	    -344	(  3  1  1)	  0  1
     74.7258	        	        	        	        	       0	(  6  2  2)	  0  1
     74.8727	        	        	        	        	    -344	(  3  1  1)	  0  2
     74.9455	        	        	        	        	       0	(  6  2  2)	  0  2
     78.5911	        	        	        	        	    -344	(  2  2  2)	  0  1
     78.6689	        	        	        	        	       0	(  4  4  4)	  0  1
     78.8266	        	        	        	        	    -344	(  2  2  2)	  0  2
     78.9048	        	        	        	        	       0	(  4  4  4)	  0  2
