 DD67    CELL:    8.43849   8.43849   8.43849   90.0000   90.0000   90.0000   SPGR: F d -3 m               TEMP:      0.00
  2   2495     1.54056     1.54443     0.00000     0.00000     0.00000    0
    32    10     0     0     0
 2Theta	Yobs	Ycal	Yobs-Ycal	Backg	Posr	(hkl)	K
     15.0230	 2829.00	 2769.66	-1320.85	 2273.07
     15.0490	 2821.00	 2769.92	-1329.11	 2273.07
     15.0750	 2926.00	 2770.18	-1224.37	 2273.07
     15.1010	 2899.00	 2770.45	-1251.64	 2273.07
     15.1270	 2833.00	 2770.72	-1317.91	 2273.07
     15.1530	 2817.00	 2771.00	-1334.19	 2273.07
     15.1790	 2878.00	 2771.29	-1273.48	 2273.07
     15.2050	 2852.00	 2771.58	-1299.77	 2273.07
     15.2310	 2796.00	 2771.88	-1356.07	 2273.07
     15.2570	 2894.00	 2772.19	-1258.38	 2273.07
     15.2830	 2907.00	 2772.50	-1245.69	 2273.07
     15.3090	 2907.00	 2772.82	-1246.01	 2273.07
     15.3350	 2949.00	 2773.15	-1204.34	 2273.07
     15.3610	 2889.00	 2773.48	-1264.67	 2273.07
     15.3870	 2883.00	 2773.82	-1271.01	 2273.07
     15.4130	 2803.00	 2774.17	-1351.36	 2273.07
     15.4390	 2831.00	 2774.53	-1323.72	 2273.07
     15.4650	 2893.00	 2774.90	-1262.09	 2273.07
     15.4910	 2925.00	 2775.27	-1230.46	 2273.07
     15.5170	 2902.00	 2775.66	-1253.85	 2273.07
     15.5430	 2959.00	 2776.05	-1197.24	 2273.07
     15.5690	 2915.00	 2775.19	-1240.38	 2271.82
     15.5950	 2836.00	 2778.09	-1322.28	 2274.30
     15.6210	 2889.00	 2780.99	-1272.18	 2276.77
     15.6470	 2828.00	 2783.90	-1336.09	 2279.25
     15.6730	 2960.00	 2786.83	-1207.02	 2281.73
     15.6990	 2965.00	 2789.76	-1204.95	 2284.21
     15.7250	 2908.00	 2792.71	-1264.90	 2286.69
     15.7510	 2946.00	 2795.67	-1229.86	 2289.17
     15.7770	 2939.00	 2798.64	-1239.83	 2291.65
     15.8030	 2920.00	 2801.63	-1261.82	 2294.13
     15.8290	 2872.00	 2804.62	-1312.82	 2296.61
     15.8550	 2920.00	 2807.64	-1267.83	 2299.09
     15.8810	 3007.00	 2810.66	-1183.85	 2301.57
     15.9070	 2985.00	 2813.70	-1208.89	 2304.05
     15.9330	 2947.00	 2816.76	-1249.95	 2306.53
     15.9590	 2902.00	 2819.83	-1298.02	 2309.01
     15.9850	 2865.00	 2822.92	-1338.11	 2311.49
     16.0110	 2905.00	 2826.03	-1301.22	 2313.96
     16.0370	 2924.00	 2829.15	-1285.34	 2316.44
     16.0630	 2921.00	 2832.29	-1291.48	 2318.92
     16.0890	 2969.00	 2835.45	-1246.64	 2321.40
     16.1150	 2905.00	 2838.63	-1313.82	 2323.88
     16.1410	 2961.00	 2841.83	-1261.02	 2326.36
     16.1670	 2803.00	 2845.05	-1422.24	 2328.84
     16.1930	 2938.00	 2848.30	-1290.49	 2331.32
     16.2190	 2910.00	 2851.56	-1321.75	 2333.80
     16.2450	 2916.00	 2854.85	-1319.04	 2336.28
     16.2710	 2955.00	 2858.16	-1283.35	 2338.76
     16.2970	 2914.00	 2861.50	-1327.69	 2341.24
     16.3230	 2923.00	 2864.86	-1322.06	 2343.72
     16.3490	 2974.00	 2868.26	-1274.45	 2346.20
     16.3750	 2988.00	 2871.68	-1263.87	 2348.68
     16.4010	 2977.00	 2875.12	-1278.31	 2351.16
     16.4270	 3066.00	 2878.60	-1192.79	 2353.63
     16.4530	 3077.00	 2882.11	-1185.30	 2356.11
     16.4790	 2992.00	 2885.66	-1273.85	 2358.59
     16.5050	 3048.00	 2889.23	-1221.42	 2361.07
     16.5310	 2949.00	 2892.84	-1324.04	 2363.55
     16.5570	 2908.00	 2896.49	-1368.68	 2366.03
     16.5830	 2984.00	 2900.18	-1296.37	 2368.51
     16.6090	 3028.00	 2903.90	-1256.09	 2370.99
     16.6350	 3020.00	 2907.67	-1267.86	 2373.47
     16.6610	 2989.00	 2911.48	-1302.67	 2375.95
     16.6870	 2975.00	 2915.33	-1320.52	 2378.43
     16.7130	 2942.00	 2919.22	-1357.41	 2380.91
     16.7390	 2957.00	 2923.17	-1346.36	 2383.39
     16.7650	 3022.00	 2927.16	-1285.35	 2385.87
     16.7910	 3016.00	 2931.20	-1295.39	 2388.35
     16.8170	 3054.00	 2935.29	-1261.48	 2390.82
     16.8430	 3104.00	 2939.44	-1215.63	 2393.30
     16.8690	 3043.00	 2943.64	-1280.83	 2395.78
     16.8950	 3011.00	 2947.90	-1317.09	 2398.26
     16.9210	 3019.00	 2952.22	-1313.41	 2400.74
     16.9470	 3040.00	 2956.61	-1296.80	 2403.22
     16.9730	 3031.00	 2961.05	-1310.24	 2405.70
     16.9990	 2975.00	 2965.56	-1370.75	 2408.18
     17.0250	 2998.00	 2970.13	-1352.32	 2410.66
     17.0510	 3047.00	 2974.78	-1307.97	 2413.14
     17.0770	 3062.00	 2979.49	-1297.68	 2415.62
     17.1030	 3027.00	 2984.28	-1337.47	 2418.10
     17.1290	 3031.00	 2989.14	-1338.33	 2420.58
     17.1550	 3102.00	 2994.08	-1272.27	 2423.06
     17.1810	 3077.00	 2999.09	-1302.28	 2425.54
     17.2070	 3012.00	 3004.18	-1372.37	 2428.01
     17.2330	 2985.00	 3009.35	-1404.54	 2430.49
     17.2590	 3049.00	 3014.60	-1345.79	 2432.97
     17.2850	 3091.00	 3019.93	-1309.12	 2435.45
     17.3110	 3002.00	 3025.34	-1403.53	 2437.93
     17.3370	 3085.00	 3030.83	-1326.02	 2440.41
     17.3630	 3020.00	 3036.40	-1396.59	 2442.89
     17.3890	 3021.00	 3042.05	-1401.24	 2445.37
     17.4150	 3088.00	 3047.77	-1339.96	 2447.85
     17.4410	 3081.00	 3053.57	-1352.76	 2450.33
     17.4670	 3044.00	 3059.44	-1395.63	 2452.81
     17.4930	 3057.00	 3065.37	-1388.56	 2455.29
     17.5190	 3135.00	 3071.37	-1316.56	 2457.77
     17.5450	 3093.00	 3077.42	-1364.61	 2460.25
     17.5710	 3096.00	 3083.53	-1367.72	 2462.73
     17.5970	 3080.00	 3089.78	-1389.97	 2465.21
     17.6230	 3163.00	 3095.96	-1313.15	 2467.68
     17.6490	 3101.00	 3102.16	-1381.35	 2470.16
     17.6750	 3012.00	 3108.38	-1476.57	 2472.64
     17.7010	 3062.00	 3114.64	-1432.83	 2475.12
     17.7270	 3075.00	 3120.84	-1426.03	 2477.60
     17.7530	 3150.00	 3127.01	-1357.20	 2480.08
     17.7790	 3061.00	 3133.14	-1452.33	 2482.56
     17.8050	 3014.00	 3139.20	-1505.39	 2485.04
     17.8310	 3092.00	 3145.18	-1433.37	 2487.52
     17.8570	 3134.00	 3151.05	-1397.24	 2490.00
     17.8830	 3041.00	 3156.81	-1496.00	 2492.48
     17.9090	 3107.00	 3162.43	-1435.62	 2494.96
     17.9350	 3076.00	 3167.88	-1472.07	 2497.44
     17.9610	 3056.00	 3173.15	-1497.34	 2499.92
     17.9870	 3030.00	 3178.21	-1528.40	 2502.40
     18.0130	 3002.00	 3183.05	-1561.24	 2504.87
     18.0390	 3229.00	 3187.65	-1338.84	 2507.35
     18.0650	 3146.00	 3191.99	-1426.18	 2509.83
     18.0910	 3129.00	 3196.05	-1447.24	 2512.31
     18.1170	 3058.00	 3199.82	-1522.01	 2514.79
     18.1430	 3052.00	 3203.29	-1531.48	 2517.27
     18.1690	 3090.00	 3206.45	-1496.64	 2519.75
     18.1950	 3057.00	 3209.29	-1532.48	 2522.23
     18.2210	 3110.00	 3211.81	-1482.00	 2524.71
     18.2470	 3151.00	 3214.02	-1443.21	 2527.19
     18.2730	 3093.00	 3215.90	-1503.09	 2529.67
     18.2990	 3046.00	 3217.48	-1551.67	 2532.15
     18.3250	 3015.00	 3218.76	-1583.95	 2534.63
     18.3510	 3017.00	 3219.74	-1582.93	 2537.11
     18.3770	 3050.00	 3220.45	-1550.64	 2539.59
     18.4030	 3040.00	 3220.89	-1561.08	 2542.06
     18.4290	 3067.00	 3221.09	-1534.28	 2544.54
     18.4550	 3152.00	 3221.06	-1449.25	 2547.02
     18.4810	 3161.00	 3220.83	-1440.02	 2549.50
     18.5070	 3056.00	 3220.41	-1544.60	 2551.98
     18.5330	 3100.00	 3219.83	-1500.02	 2554.46
     18.5590	 3027.00	 3219.11	-1572.30	 2556.94
     18.5850	 3098.00	 3218.26	-1500.45	 2559.42
     18.6110	 3091.00	 3217.30	-1506.50	 2561.90
     18.6370	 3115.00	 3216.27	-1481.46	 2564.38
     18.6630	 3149.00	 3215.17	-1446.36	 2566.86
     18.6890	 3138.00	 3214.02	-1456.21	 2569.34
     18.7150	 3087.00	 3212.84	-1506.03	 2571.82
     18.7410	 3062.00	 3211.65	-1529.84	 2574.30
     18.7670	 3124.00	 3210.45	-1466.64	 2576.78
     18.7930	 3075.00	 3209.27	-1514.46	 2579.25
     18.8190	 3100.00	 3208.11	-1488.30	 2581.73
     18.8450	 3137.00	 3206.97	-1450.17	 2584.21
     18.8710	 3125.00	 3205.89	-1461.08	 2586.69
     18.8970	 3114.00	 3204.85	-1471.04	 2589.17
     18.9230	 3087.00	 3203.86	-1497.05	 2591.65
     18.9490	 3168.00	 3202.94	-1415.13	 2594.13
     18.9750	 3118.00	 3202.09	-1464.28	 2596.61
     19.0010	 3130.00	 3201.30	-1451.49	 2599.09
     19.0270	 3137.00	 3200.59	-1443.78	 2601.57
     19.0530	 3078.00	 3199.95	-1502.15	 2604.05
     19.0790	 3016.00	 3199.40	-1563.59	 2606.53
     19.1050	 2995.00	 3198.92	-1584.11	 2609.01
     19.1310	 3054.00	 3198.52	-1524.71	 2611.49
     19.1570	 3053.00	 3198.21	-1525.40	 2613.97
     19.1830	 3127.00	 3197.97	-1451.16	 2616.45
     19.2090	 3157.00	 3197.81	-1421.00	 2618.92
     19.2350	 3106.00	 3197.73	-1471.92	 2621.40
     19.2610	 3082.00	 3197.73	-1495.92	 2623.88
     19.2870	 3090.00	 3197.81	-1488.00	 2626.36
     19.3130	 3094.00	 3197.96	-1484.15	 2628.84
     19.3390	 3123.00	 3198.19	-1455.38	 2631.32
     19.3650	 3148.00	 3198.49	-1430.68	 2633.80
     19.3910	 3127.00	 3198.85	-1452.05	 2636.28
     19.4170	 3136.00	 3199.29	-1443.48	 2638.76
     19.4430	 3098.00	 3199.80	-1481.99	 2641.24
     19.4690	 3039.00	 3200.37	-1541.56	 2643.72
     19.4950	 3034.00	 3201.00	-1547.19	 2646.20
     19.5210	 3018.00	 3201.70	-1563.89	 2648.68
     19.5470	 3085.00	 3202.45	-1497.64	 2651.16
     19.5730	 3159.00	 3203.27	-1424.46	 2653.64
     19.5990	 3152.00	 3204.13	-1432.33	 2656.11
     19.6250	 3139.00	 3205.06	-1446.25	 2658.59
     19.6510	 3157.00	 3206.03	-1429.22	 2661.07
     19.6770	 3182.00	 3207.06	-1405.25	 2663.55
     19.7030	 3112.00	 3208.13	-1476.32	 2666.03
     19.7290	 3104.00	 3209.25	-1485.44	 2668.51
     19.7550	 3120.00	 3210.42	-1470.61	 2670.99
     19.7810	 3178.00	 3211.61	-1413.80	 2673.45
     19.8070	 3150.00	 3212.65	-1442.84	 2675.72
     19.8330	 3093.00	 3213.73	-1500.92	 2677.98
     19.8590	 3136.00	 3214.85	-1459.04	 2680.25
     19.8850	 3210.00	 3216.01	-1386.20	 2682.52
     19.9110	 3208.00	 3217.21	-1389.40	 2684.78
     19.9370	 3167.00	 3218.44	-1431.63	 2687.05
     19.9630	 3223.00	 3219.70	-1376.89	 2689.32
     19.9890	 3215.00	 3221.00	-1386.19	 2691.58
     20.0150	 3202.00	 3222.33	-1400.52	 2693.85
     20.0410	 3178.00	 3223.69	-1425.88	 2696.12
     20.0670	 3160.00	 3225.08	-1445.27	 2698.38
     20.0930	 3224.00	 3226.49	-1382.68	 2700.65
     20.1190	 3267.00	 3227.94	-1341.13	 2702.92
     20.1450	 3238.00	 3229.41	-1371.60	 2705.18
     20.1710	 3192.00	 3230.90	-1419.09	 2707.45
     20.1970	 3211.00	 3232.43	-1401.62	 2709.72
     20.2230	 3212.00	 3233.97	-1402.16	 2711.99
     20.2490	 3153.00	 3235.54	-1462.73	 2714.25
     20.2750	 3133.00	 3237.13	-1484.32	 2716.52
     20.3010	 3140.00	 3238.74	-1478.93	 2718.79
     20.3270	 3157.00	 3240.37	-1463.56	 2721.05
     20.3530	 3209.00	 3242.02	-1413.21	 2723.32
     20.3790	 3199.00	 3243.69	-1424.88	 2725.59
     20.4050	 3320.00	 3245.38	-1305.57	 2727.85
     20.4310	 3252.00	 3247.08	-1375.27	 2730.12
     20.4570	 3290.00	 3248.81	-1339.00	 2732.39
     20.4830	 3356.00	 3250.55	-1274.74	 2734.65
     20.5090	 3144.00	 3252.30	-1488.49	 2736.92
     20.5350	 3292.00	 3254.08	-1342.27	 2739.19
     20.5610	 3185.00	 3255.86	-1451.05	 2741.45
     20.5870	 3238.00	 3257.66	-1399.85	 2743.72
     20.6130	 3281.00	 3259.48	-1358.67	 2745.99
     20.6390	 3371.00	 3261.31	-1270.50	 2748.25
     20.6650	 3316.00	 3263.15	-1327.34	 2750.52
     20.6910	 3164.00	 3265.01	-1481.20	 2752.79
     20.7170	 3333.00	 3266.87	-1314.06	 2755.06
     20.7430	 3367.00	 3268.75	-1281.94	 2757.32
     20.7690	 3300.00	 3270.64	-1350.83	 2759.59
     20.7950	 3242.00	 3272.54	-1410.73	 2761.86
     20.8210	 3256.00	 3274.46	-1398.65	 2764.12
     20.8470	 3231.00	 3276.38	-1425.57	 2766.39
     20.8730	 3257.00	 3278.31	-1401.50	 2768.66
     20.8990	 3321.00	 3280.26	-1339.45	 2770.92
     20.9250	 3208.00	 3282.21	-1454.40	 2773.19
     20.9510	 3373.00	 3284.17	-1291.36	 2775.46
     20.9770	 3213.00	 3286.14	-1453.33	 2777.72
     21.0030	 3259.00	 3288.12	-1409.31	 2779.99
     21.0290	 3276.00	 3290.11	-1394.30	 2782.26
     21.0550	 3159.00	 3292.11	-1513.30	 2784.52
     21.0810	 3268.00	 3294.11	-1406.30	 2786.79
     21.1070	 3326.00	 3296.13	-1350.32	 2789.06
     21.1330	 3313.00	 3298.15	-1365.34	 2791.32
     21.1590	 3310.00	 3300.17	-1370.36	 2793.59
     21.1850	 3189.00	 3302.21	-1493.40	 2795.86
     21.2110	 3348.00	 3304.25	-1336.44	 2798.13
     21.2370	 3277.00	 3306.30	-1409.49	 2800.39
     21.2630	 3305.00	 3308.35	-1383.54	 2802.66
     21.2890	 3363.00	 3310.42	-1327.61	 2804.93
     21.3150	 3375.00	 3312.48	-1317.67	 2807.19
     21.3410	 3380.00	 3314.56	-1314.75	 2809.46
     21.3670	 3311.00	 3316.64	-1385.83	 2811.73
     21.3930	 3291.00	 3318.72	-1407.91	 2813.99
     21.4190	 3299.00	 3320.81	-1402.00	 2816.26
     21.4450	 3310.00	 3322.91	-1393.10	 2818.53
     21.4710	 3276.00	 3325.01	-1429.20	 2820.79
     21.4970	 3360.00	 3327.12	-1347.31	 2823.06
     21.5230	 3322.00	 3329.23	-1387.42	 2825.33
     21.5490	 3403.00	 3331.35	-1308.54	 2827.59
     21.5750	 3404.00	 3333.47	-1309.66	 2829.86
     21.6010	 3379.00	 3335.59	-1336.79	 2832.13
     21.6270	 3384.00	 3337.73	-1333.92	 2834.39
     21.6530	 3388.00	 3339.86	-1332.05	 2836.66
     21.6790	 3346.00	 3342.00	-1376.19	 2838.93
     21.7050	 3388.00	 3344.15	-1336.34	 2841.20
     21.7310	 3370.00	 3346.29	-1356.49	 2843.46
     21.7570	 3374.00	 3348.45	-1354.64	 2845.73
     21.7830	 3354.00	 3351.27	-1377.46	 2848.67
     21.8090	 3324.00	 3354.51	-1410.70	 2852.01
     21.8350	 3356.00	 3357.75	-1381.94	 2855.35
     21.8610	 3402.00	 3360.99	-1339.18	 2858.69
     21.8870	 3389.00	 3364.24	-1355.43	 2862.04
     21.9130	 3373.00	 3367.49	-1374.68	 2865.38
     21.9390	 3425.00	 3370.75	-1325.94	 2868.72
     21.9650	 3436.00	 3374.00	-1318.19	 2872.06
     21.9910	 3393.00	 3377.26	-1364.46	 2875.41
     22.0170	 3413.00	 3380.53	-1347.72	 2878.75
     22.0430	 3483.00	 3383.80	-1280.99	 2882.09
     22.0690	 3505.00	 3387.07	-1262.26	 2885.43
     22.0950	 3432.00	 3390.34	-1338.53	 2888.78
     22.1210	 3394.00	 3393.62	-1379.81	 2892.12
     22.1470	 3439.00	 3396.90	-1338.09	 2895.46
     22.1730	 3414.00	 3400.18	-1366.37	 2898.80
     22.1990	 3414.00	 3403.47	-1369.66	 2902.15
     22.2250	 3434.00	 3406.76	-1352.95	 2905.49
     22.2510	 3400.00	 3410.05	-1390.24	 2908.83
     22.2770	 3448.00	 3413.34	-1345.53	 2912.17
     22.3030	 3425.00	 3416.64	-1371.83	 2915.51
     22.3290	 3367.00	 3419.94	-1433.13	 2918.86
     22.3550	 3405.00	 3423.24	-1398.43	 2922.20
     22.3810	 3461.00	 3426.55	-1345.74	 2925.54
     22.4070	 3487.00	 3429.85	-1323.04	 2928.88
     22.4330	 3463.00	 3433.16	-1350.35	 2932.23
     22.4590	 3451.00	 3436.48	-1365.67	 2935.57
     22.4850	 3406.00	 3439.79	-1413.98	 2938.91
     22.5110	 3543.00	 3443.11	-1280.30	 2942.25
     22.5370	 3467.00	 3446.43	-1359.62	 2945.60
     22.5630	 3502.00	 3449.75	-1327.94	 2948.94
     22.5890	 3539.00	 3453.07	-1294.26	 2952.28
     22.6150	 3466.00	 3456.40	-1370.59	 2955.62
     22.6410	 3324.00	 3459.73	-1515.92	 2958.97
     22.6670	 3427.00	 3463.06	-1416.25	 2962.31
     22.6930	 3510.00	 3466.39	-1336.58	 2965.65
     22.7190	 3556.00	 3469.73	-1293.92	 2968.99
     22.7450	 3486.00	 3473.06	-1367.25	 2972.34
     22.7710	 3460.00	 3476.40	-1396.59	 2975.68
     22.7970	 3548.00	 3479.74	-1311.93	 2979.02
     22.8230	 3457.00	 3483.09	-1406.28	 2982.36
     22.8490	 3556.00	 3486.43	-1310.62	 2985.71
     22.8750	 3532.00	 3489.78	-1337.97	 2989.05
     22.9010	 3521.00	 3493.13	-1352.32	 2992.39
     22.9270	 3527.00	 3496.48	-1349.67	 2995.73
     22.9530	 3516.00	 3499.83	-1364.02	 2999.08
     22.9790	 3468.00	 3503.19	-1415.38	 3002.42
     23.0050	 3508.00	 3506.54	-1378.74	 3005.76
     23.0310	 3540.00	 3508.26	-1348.45	 3007.46
     23.0570	 3465.00	 3509.00	-1424.19	 3008.19
     23.0830	 3424.00	 3509.75	-1465.94	 3008.91
     23.1090	 3569.00	 3510.49	-1321.68	 3009.63
     23.1350	 3550.00	 3511.24	-1341.43	 3010.36
     23.1610	 3564.00	 3511.99	-1328.18	 3011.08
     23.1870	 3545.00	 3512.74	-1347.93	 3011.81
     23.2130	 3610.00	 3513.50	-1283.69	 3012.53
     23.2390	 3605.00	 3514.25	-1289.44	 3013.25
     23.2650	 3534.00	 3515.01	-1361.20	 3013.98
     23.2910	 3510.00	 3516.35	-1386.54	 3014.70
     23.3170	 3570.00	 3517.11	-1327.30	 3015.43
     23.3430	 3567.00	 3517.87	-1331.06	 3016.15
     23.3690	 3534.00	 3518.64	-1364.83	 3016.87
     23.3950	 3525.00	 3519.70	-1374.89	 3017.60
     23.4210	 3588.00	 3520.47	-1312.66	 3018.32
     23.4470	 3551.00	 3521.24	-1350.43	 3019.05
     23.4730	 3583.00	 3522.01	-1319.20	 3019.77
     23.4990	 3668.00	 3522.78	-1234.98	 3020.49
     23.5250	 3602.00	 3523.56	-1301.75	 3021.22
     23.5510	 3589.00	 3524.34	-1315.53	 3021.94
     23.5770	 3558.00	 3525.12	-1347.31	 3022.67
     23.6030	 3495.00	 3525.90	-1411.09	 3023.39
     23.6290	 3653.00	 3526.68	-1253.87	 3024.11
     23.6550	 3521.00	 3527.47	-1386.66	 3024.84
     23.6810	 3456.00	 3528.25	-1452.44	 3025.56
     23.7070	 3536.00	 3529.04	-1373.23	 3026.29
     23.7330	 3661.00	 3529.83	-1249.02	 3027.01
     23.7590	 3672.00	 3530.62	-1238.81	 3027.73
     23.7850	 3601.00	 3531.42	-1310.61	 3028.46
     23.8110	 3665.00	 3532.21	-1247.40	 3029.18
     23.8370	 3626.00	 3533.01	-1287.20	 3029.91
     23.8630	 3584.00	 3533.81	-1330.00	 3030.63
     23.8890	 3627.00	 3534.61	-1287.80	 3031.35
     23.9150	 3564.00	 3535.41	-1351.60	 3032.08
     23.9410	 3622.00	 3536.21	-1294.40	 3032.80
     23.9670	 3677.00	 3537.02	-1240.21	 3033.53
     23.9930	 3642.00	 3537.82	-1276.01	 3034.25
     24.0190	 3631.00	 3538.63	-1287.82	 3034.97
     24.0450	 3681.00	 3539.44	-1238.63	 3035.70
     24.0710	 3606.00	 3540.25	-1314.44	 3036.42
     24.0970	 3637.00	 3541.06	-1284.26	 3037.15
     24.1230	 3647.00	 3541.88	-1275.07	 3037.87
     24.1490	 3664.00	 3542.70	-1258.89	 3038.59
     24.1750	 3633.00	 3543.52	-1290.71	 3039.32
     24.2010	 3700.00	 3544.34	-1224.53	 3040.04
     24.2270	 3658.00	 3545.16	-1267.35	 3040.77
     24.2530	 3582.00	 3545.98	-1344.17	 3041.49
     24.2790	 3637.00	 3546.81	-1290.00	 3042.22
     24.3050	 3604.00	 3547.63	-1323.82	 3042.94
     24.3310	 3627.00	 3548.46	-1301.65	 3043.66
     24.3570	 3610.00	 3549.29	-1319.48	 3044.39
     24.3830	 3547.00	 3550.13	-1383.32	 3045.11
     24.4090	 3591.00	 3550.96	-1340.15	 3045.84
     24.4350	 3597.00	 3551.80	-1334.99	 3046.56
     24.4610	 3620.00	 3552.64	-1312.83	 3047.28
     24.4870	 3619.00	 3553.48	-1314.67	 3048.01
     24.5130	 3605.00	 3554.32	-1329.51	 3048.73
     24.5390	 3647.00	 3555.16	-1288.35	 3049.46
     24.5650	 3656.00	 3556.01	-1280.20	 3050.18
     24.5910	 3667.00	 3556.85	-1270.05	 3050.90
     24.6170	 3614.00	 3557.70	-1323.89	 3051.63
     24.6430	 3581.00	 3558.56	-1357.75	 3052.35
     24.6690	 3615.00	 3559.41	-1324.60	 3053.08
     24.6950	 3598.00	 3560.26	-1342.46	 3053.80
     24.7210	 3564.00	 3561.12	-1377.31	 3054.52
     24.7470	 3589.00	 3561.98	-1353.17	 3055.25
     24.7730	 3586.00	 3562.84	-1357.03	 3055.97
     24.7990	 3580.00	 3563.71	-1363.90	 3056.70
     24.8250	 3632.00	 3564.57	-1312.76	 3057.42
     24.8510	 3589.00	 3565.44	-1356.63	 3058.14
     24.8770	 3617.00	 3566.31	-1329.50	 3058.87
     24.9030	 3659.00	 3567.18	-1288.37	 3059.59
     24.9290	 3613.00	 3568.05	-1335.25	 3060.32
     24.9550	 3626.00	 3568.93	-1323.12	 3061.04
     24.9810	 3644.00	 3569.81	-1306.00	 3061.76
     25.0070	 3603.00	 3570.69	-1347.88	 3062.49
     25.0330	 3580.00	 3571.57	-1371.76	 3063.21
     25.0590	 3625.00	 3572.46	-1327.65	 3063.94
     25.0850	 3695.00	 3573.35	-1258.54	 3064.66
     25.1110	 3716.00	 3574.23	-1238.43	 3065.38
     25.1370	 3708.00	 3575.13	-1247.32	 3066.11
     25.1630	 3696.00	 3576.02	-1260.21	 3066.83
     25.1890	 3713.00	 3576.92	-1244.11	 3067.56
     25.2150	 3734.00	 3577.82	-1224.01	 3068.28
     25.2410	 3614.00	 3578.72	-1344.91	 3069.00
     25.2670	 3614.00	 3579.62	-1345.81	 3069.73
     25.2930	 3686.00	 3580.34	-1274.53	 3070.26
     25.3190	 3698.00	 3580.93	-1263.12	 3070.66
     25.3450	 3685.00	 3581.52	-1276.71	 3071.07
     25.3710	 3626.00	 3582.11	-1336.30	 3071.47
     25.3970	 3713.00	 3582.71	-1249.90	 3071.88
     25.4230	 3612.00	 3583.31	-1351.50	 3072.28
     25.4490	 3635.00	 3583.91	-1329.10	 3072.68
     25.4750	 3642.00	 3584.52	-1322.71	 3073.09
     25.5010	 3619.00	 3585.13	-1346.32	 3073.49
     25.5270	 3604.00	 3585.74	-1361.93	 3073.89
     25.5530	 3638.00	 3586.35	-1328.54	 3074.30
     25.5790	 3559.00	 3586.97	-1408.16	 3074.70
     25.6050	 3653.00	 3587.59	-1314.78	 3075.10
     25.6310	 3638.00	 3588.21	-1330.40	 3075.51
     25.6570	 3619.00	 3588.84	-1350.03	 3075.91
     25.6830	 3597.00	 3589.47	-1372.66	 3076.32
     25.7090	 3549.00	 3590.10	-1421.29	 3076.72
     25.7350	 3596.00	 3590.74	-1374.93	 3077.12
     25.7610	 3697.00	 3591.38	-1274.57	 3077.53
     25.7870	 3736.00	 3592.02	-1236.21	 3077.93
     25.8130	 3574.00	 3592.66	-1398.85	 3078.33
     25.8390	 3543.00	 3593.31	-1430.50	 3078.74
     25.8650	 3666.00	 3593.97	-1308.16	 3079.14
     25.8910	 3652.00	 3594.62	-1322.81	 3079.54
     25.9170	 3527.00	 3595.28	-1448.47	 3079.95
     25.9430	 3583.00	 3595.95	-1393.14	 3080.35
     25.9690	 3614.00	 3596.62	-1362.81	 3080.76
     25.9950	 3572.00	 3597.29	-1405.48	 3081.16
     26.0210	 3629.00	 3597.96	-1349.16	 3081.56
     26.0470	 3525.00	 3598.64	-1453.83	 3081.97
     26.0730	 3675.00	 3599.33	-1304.52	 3082.37
     26.0990	 3587.00	 3600.02	-1393.21	 3082.77
     26.1250	 3574.00	 3600.71	-1406.90	 3083.18
     26.1510	 3673.00	 3601.41	-1308.60	 3083.58
     26.1770	 3585.00	 3602.11	-1397.30	 3083.98
     26.2030	 3588.00	 3602.81	-1395.00	 3084.39
     26.2290	 3621.00	 3603.52	-1362.71	 3084.79
     26.2550	 3578.00	 3604.24	-1406.43	 3085.20
     26.2810	 3664.00	 3604.96	-1321.15	 3085.60
     26.3070	 3657.00	 3605.68	-1328.87	 3086.00
     26.3330	 3774.00	 3606.41	-1212.60	 3086.41
     26.3590	 3600.00	 3607.15	-1387.34	 3086.81
     26.3850	 3507.00	 3607.89	-1481.08	 3087.21
     26.4110	 3589.00	 3608.63	-1399.82	 3087.62
     26.4370	 3611.00	 3609.39	-1378.58	 3088.02
     26.4630	 3546.00	 3610.14	-1444.33	 3088.42
     26.4890	 3595.00	 3610.90	-1396.09	 3088.83
     26.5150	 3627.00	 3611.67	-1364.86	 3089.23
     26.5410	 3718.00	 3612.45	-1274.64	 3089.64
     26.5670	 3624.00	 3613.23	-1369.42	 3090.04
     26.5930	 3629.00	 3614.01	-1365.20	 3090.44
     26.6190	 3783.00	 3614.80	-1212.00	 3090.85
     26.6450	 3679.00	 3615.60	-1316.79	 3091.25
     26.6710	 3655.00	 3616.41	-1341.60	 3091.65
     26.6970	 3655.00	 3617.22	-1342.41	 3092.06
     26.7230	 3660.00	 3618.04	-1338.23	 3092.46
     26.7490	 3637.00	 3618.87	-1362.06	 3092.86
     26.7750	 3636.00	 3619.70	-1363.89	 3093.27
     26.8010	 3554.00	 3620.54	-1446.73	 3093.67
     26.8270	 3592.00	 3621.39	-1409.58	 3094.08
     26.8530	 3582.00	 3622.25	-1420.44	 3094.48
     26.8790	 3607.00	 3623.11	-1396.30	 3094.88
     26.9050	 3630.00	 3623.98	-1374.18	 3095.29
     26.9310	 3618.00	 3624.87	-1387.06	 3095.69
     26.9570	 3623.00	 3625.76	-1382.95	 3096.09
     26.9830	 3593.00	 3626.65	-1413.84	 3096.50
     27.0090	 3569.00	 3627.56	-1438.75	 3096.90
     27.0350	 3593.00	 3628.48	-1415.67	 3097.30
     27.0610	 3604.00	 3629.41	-1405.60	 3097.71
     27.0870	 3622.00	 3630.34	-1388.53	 3098.11
     27.1130	 3590.00	 3631.29	-1421.48	 3098.52
     27.1390	 3580.00	 3632.24	-1432.44	 3098.92
     27.1650	 3658.00	 3633.21	-1355.40	 3099.32
     27.1910	 3636.00	 3634.19	-1378.38	 3099.73
     27.2170	 3636.00	 3635.18	-1379.37	 3100.13
     27.2430	 3681.00	 3636.18	-1335.37	 3100.53
     27.2690	 3653.00	 3637.19	-1364.38	 3100.94
     27.2950	 3643.00	 3638.22	-1375.41	 3101.34
     27.3210	 3640.00	 3639.26	-1379.45	 3101.74
     27.3470	 3624.00	 3640.31	-1396.50	 3102.15
     27.3730	 3654.00	 3641.37	-1367.56	 3102.55
     27.3990	 3684.00	 3642.45	-1338.64	 3102.96
     27.4250	 3703.00	 3643.54	-1320.73	 3103.36
     27.4510	 3716.00	 3644.76	-1308.95	 3103.88
     27.4770	 3665.00	 3646.33	-1361.52	 3104.74
     27.5030	 3658.00	 3647.92	-1370.11	 3105.59
     27.5290	 3681.00	 3649.52	-1348.71	 3106.44
     27.5550	 3672.00	 3651.14	-1359.33	 3107.29
     27.5810	 3578.00	 3652.77	-1454.96	 3108.15
     27.6070	 3492.00	 3654.42	-1542.62	 3109.00
     27.6330	 3595.00	 3656.09	-1441.28	 3109.85
     27.6590	 3683.00	 3657.78	-1354.97	 3110.71
     27.6850	 3794.00	 3659.49	-1245.68	 3111.56
     27.7110	 3775.00	 3661.22	-1266.41	 3112.41
     27.7370	 3678.00	 3662.96	-1365.15	 3113.27
     27.7630	 3650.00	 3664.73	-1394.92	 3114.12
     27.7890	 3737.00	 3666.52	-1309.71	 3114.97
     27.8150	 3714.00	 3668.33	-1334.52	 3115.83
     27.8410	 3664.00	 3670.16	-1386.35	 3116.68
     27.8670	 3649.00	 3672.02	-1403.21	 3117.53
     27.8930	 3725.00	 3673.90	-1329.09	 3118.39
     27.9190	 3772.00	 3675.81	-1284.00	 3119.24
     27.9450	 3756.00	 3677.74	-1301.93	 3120.09
     27.9710	 3797.00	 3679.70	-1262.90	 3120.95
     27.9970	 3753.00	 3681.69	-1308.88	 3121.80
     28.0230	 3749.00	 3683.71	-1314.90	 3122.65
     28.0490	 3714.00	 3685.76	-1351.95	 3123.51
     28.0750	 3747.00	 3687.84	-1321.03	 3124.36
     28.1010	 3717.00	 3689.95	-1353.14	 3125.21
     28.1270	 3668.00	 3692.09	-1404.28	 3126.06
     28.1530	 3721.00	 3694.27	-1353.46	 3126.92
     28.1790	 3862.00	 3696.48	-1214.67	 3127.77
     28.2050	 3792.00	 3698.73	-1286.92	 3128.62
     28.2310	 3670.00	 3701.01	-1411.20	 3129.48
     28.2570	 3803.00	 3703.34	-1280.53	 3130.33
     28.2830	 3788.00	 3705.71	-1297.90	 3131.18
     28.3090	 3758.00	 3708.11	-1330.31	 3132.04
     28.3350	 3699.00	 3710.57	-1391.76	 3132.89
     28.3610	 3667.00	 3713.06	-1426.25	 3133.74
     28.3870	 3697.00	 3715.60	-1398.80	 3134.60
     28.4130	 3768.00	 3718.20	-1330.39	 3135.45
     28.4390	 3748.00	 3720.84	-1353.03	 3136.30
     28.4650	 3807.00	 3723.53	-1296.72	 3137.16
     28.4910	 3649.00	 3726.27	-1457.46	 3138.01
     28.5170	 3764.00	 3729.07	-1345.26	 3138.86
     28.5430	 3839.00	 3731.92	-1273.11	 3139.72
     28.5690	 3820.00	 3734.84	-1295.03	 3140.57
     28.5950	 3789.00	 3737.81	-1329.00	 3141.42
     28.6210	 3918.00	 3740.84	-1203.03	 3142.28
     28.6470	 3938.00	 3743.94	-1186.13	 3143.13
     28.6730	 3810.00	 3747.11	-1317.30	 3143.98
     28.6990	 3908.00	 3750.34	-1222.53	 3144.84
     28.7250	 3885.00	 3752.74	-1247.93	 3144.79
     28.7510	 3864.00	 3754.90	-1271.09	 3144.44
     28.7770	 3803.00	 3757.14	-1334.33	 3144.08
     28.8030	 3939.00	 3759.45	-1200.64	 3143.73
     28.8290	 3861.00	 3761.84	-1281.03	 3143.37
     28.8550	 3824.00	 3764.30	-1320.50	 3143.02
     28.8810	 3868.00	 3766.85	-1279.04	 3142.66
     28.9070	 3655.00	 3769.48	-1494.67	 3142.31
     28.9330	 3771.00	 3772.18	-1381.37	 3141.95
     28.9590	 3791.00	 3774.97	-1364.16	 3141.59
     28.9850	 3768.00	 3777.85	-1390.04	 3141.24
     29.0110	 3750.00	 3780.80	-1410.99	 3140.88
     29.0370	 3764.00	 3783.85	-1400.04	 3140.53
     29.0630	 3797.00	 3786.97	-1370.16	 3140.17
     29.0890	 3765.00	 3790.18	-1405.37	 3139.82
     29.1150	 3894.00	 3793.47	-1279.66	 3139.46
     29.1410	 3871.00	 3796.84	-1306.03	 3139.11
     29.1670	 3810.00	 3800.29	-1370.48	 3138.75
     29.1930	 3935.00	 3803.81	-1249.00	 3138.40
     29.2190	 3888.00	 3807.41	-1299.60	 3138.04
     29.2450	 3828.00	 3811.07	-1363.26	 3137.69
     29.2710	 3924.00	 3814.79	-1270.98	 3137.33
     29.2970	 3875.00	 3818.57	-1323.76	 3136.98
     29.3230	 3859.00	 3822.39	-1343.58	 3136.62
     29.3490	 3822.00	 3826.26	-1384.45	 3136.27
     29.3750	 3796.00	 3830.15	-1414.34	 3135.91
     29.4010	 3858.00	 3834.06	-1356.25	 3135.56
     29.4270	 3862.00	 3837.98	-1356.17	 3135.20
     29.4530	 3850.00	 3841.89	-1372.08	 3134.85
     29.4790	 3962.00	 3845.79	-1263.98	 3134.49
     29.5050	 3938.00	 3849.64	-1291.83	 3134.14
     29.5310	 3867.00	 3853.45	-1366.64	 3133.78
     29.5570	 3842.00	 3857.18	-1395.37	 3133.43
     29.5830	 3878.00	 3860.83	-1363.02	 3133.07
     29.6090	 3873.00	 3864.37	-1371.56	 3132.72
     29.6350	 3777.00	 3867.79	-1470.98	 3132.36
     29.6610	 3815.00	 3871.06	-1436.25	 3132.01
     29.6870	 3963.00	 3874.16	-1291.35	 3131.65
     29.7130	 3933.00	 3877.08	-1324.27	 3131.29
     29.7390	 3868.00	 3879.79	-1391.98	 3130.94
     29.7650	 3882.00	 3882.29	-1380.48	 3130.58
     29.7910	 3855.00	 3884.54	-1409.73	 3130.23
     29.8170	 3800.00	 3886.54	-1466.73	 3129.87
     29.8430	 3891.00	 3888.27	-1377.46	 3129.52
     29.8690	 3935.00	 3889.72	-1334.91	 3129.16
     29.8950	 3883.00	 3890.88	-1388.07	 3128.81
     29.9210	 3883.00	 3891.74	-1388.93	 3128.45
     29.9470	 3889.00	 3892.31	-1383.50	 3128.10
     29.9730	 3850.00	 3892.57	-1422.76	 3127.74
     29.9990	 3811.00	 3892.52	-1461.71	 3127.39
     30.0250	 3887.00	 3892.19	-1385.38	 3127.03
     30.0510	 3847.00	 3891.56	-1424.75	 3126.68
     30.0770	 3720.00	 3890.65	-1550.84	 3126.32
     30.1030	 3796.00	 3889.46	-1473.66	 3125.97
     30.1290	 3844.00	 3888.03	-1424.22	 3125.61
     30.1550	 3813.00	 3886.35	-1453.54	 3125.26
     30.1810	 3823.00	 3884.45	-1441.64	 3124.90
     30.2070	 3829.00	 3882.34	-1433.54	 3124.55
     30.2330	 3814.00	 3880.05	-1446.24	 3124.19
     30.2590	 3776.00	 3877.60	-1481.79	 3123.84
     30.2850	 3821.00	 3874.99	-1434.18	 3123.48
     30.3110	 3852.00	 3872.26	-1400.45	 3123.13
     30.3370	 3825.00	 3869.43	-1424.62	 3122.77
     30.3630	 3854.00	 3866.50	-1392.69	 3122.42
     30.3890	 3806.00	 3863.51	-1437.70	 3122.06
     30.4150	 3814.00	 3860.47	-1426.66	 3121.71
     30.4410	 3842.00	 3857.40	-1395.59	 3121.35
     30.4670	 3836.00	 3854.31	-1398.50	 3120.99
     30.4930	 3837.00	 3851.22	-1394.41	 3120.64
     30.5190	 3851.00	 3848.14	-1377.33	 3120.28
     30.5450	 3777.00	 3845.09	-1448.28	 3119.93
     30.5710	 3787.00	 3842.07	-1435.26	 3119.57
     30.5970	 3857.00	 3839.09	-1362.28	 3119.22
     30.6230	 3780.00	 3836.18	-1436.37	 3118.86
     30.6490	 3760.00	 3833.32	-1453.51	 3118.51
     30.6750	 3737.00	 3830.54	-1473.73	 3118.15
     30.7010	 3817.00	 3827.83	-1391.02	 3117.80
     30.7270	 3827.00	 3825.21	-1378.40	 3117.44
     30.7530	 3714.00	 3822.67	-1488.86	 3117.09
     30.7790	 3833.00	 3820.22	-1367.41	 3116.73
     30.8050	 3755.00	 3817.86	-1443.05	 3116.38
     30.8310	 3755.00	 3815.60	-1440.79	 3116.02
     30.8570	 3668.00	 3813.44	-1525.63	 3115.67
     30.8830	 3746.00	 3811.37	-1445.56	 3115.31
     30.9090	 3807.00	 3809.40	-1382.59	 3114.96
     30.9350	 3715.00	 3807.54	-1472.73	 3114.60
     30.9610	 3684.00	 3805.77	-1501.96	 3114.25
     30.9870	 3628.00	 3804.10	-1556.29	 3113.89
     31.0130	 3638.00	 3802.54	-1544.73	 3113.54
     31.0390	 3617.00	 3801.07	-1564.26	 3113.18
     31.0650	 3727.00	 3799.70	-1452.89	 3112.83
     31.0910	 3625.00	 3798.43	-1553.62	 3112.47
     31.1170	 3654.00	 3797.26	-1523.45	 3112.12
     31.1430	 3654.00	 3796.18	-1522.37	 3111.76
     31.1690	 3660.00	 3795.19	-1515.38	 3111.41
     31.1950	 3621.00	 3794.30	-1553.49	 3111.05
     31.2210	 3637.00	 3793.51	-1536.70	 3110.69
     31.2470	 3669.00	 3792.80	-1503.99	 3110.34
     31.2730	 3680.00	 3792.19	-1492.38	 3109.98
     31.2990	 3736.00	 3791.66	-1435.85	 3109.63
     31.3250	 3611.00	 3791.22	-1560.41	 3109.27
     31.3510	 3595.00	 3790.87	-1576.06	 3108.92
     31.3770	 3653.00	 3790.60	-1517.79	 3108.56
     31.4030	 3677.00	 3790.42	-1493.61	 3108.21
     31.4290	 3664.00	 3790.32	-1506.51	 3107.85
     31.4550	 3636.00	 3790.31	-1534.50	 3107.50
     31.4810	 3679.00	 3790.38	-1491.57	 3107.14
     31.5070	 3649.00	 3790.53	-1521.72	 3106.79
     31.5330	 3652.00	 3790.76	-1518.95	 3106.43
     31.5590	 3627.00	 3791.07	-1544.26	 3106.08
     31.5850	 3596.00	 3791.46	-1575.65	 3105.72
     31.6110	 3584.00	 3791.93	-1588.12	 3105.37
     31.6370	 3725.00	 3792.48	-1447.67	 3105.01
     31.6630	 3546.00	 3793.11	-1627.30	 3104.66
     31.6890	 3642.00	 3793.81	-1532.01	 3104.30
     31.7150	 3674.00	 3794.60	-1500.79	 3103.95
     31.7410	 3619.00	 3795.11	-1556.30	 3103.24
     31.7670	 3653.00	 3794.08	-1521.27	 3100.92
     31.7930	 3627.00	 3793.14	-1546.33	 3098.60
     31.8190	 3655.00	 3792.27	-1517.46	 3096.28
     31.8450	 3582.00	 3791.48	-1589.67	 3093.96
     31.8710	 3593.00	 3790.77	-1577.96	 3091.64
     31.8970	 3713.00	 3790.14	-1457.33	 3089.32
     31.9230	 3621.00	 3789.59	-1548.78	 3087.00
     31.9490	 3583.00	 3789.11	-1586.30	 3084.68
     31.9750	 3618.00	 3788.72	-1550.91	 3082.36
     32.0010	 3653.00	 3788.42	-1515.61	 3080.05
     32.0270	 3613.00	 3788.19	-1555.38	 3077.73
     32.0530	 3620.00	 3788.04	-1548.24	 3075.41
     32.0790	 3590.00	 3787.99	-1578.18	 3073.09
     32.1050	 3579.00	 3788.01	-1589.20	 3070.77
     32.1310	 3548.00	 3788.12	-1620.31	 3068.45
     32.1570	 3606.00	 3788.32	-1562.52	 3066.13
     32.1830	 3646.00	 3788.61	-1522.80	 3063.81
     32.2090	 3693.00	 3788.99	-1476.18	 3061.49
     32.2350	 3628.00	 3789.47	-1541.66	 3059.17
     32.2610	 3480.00	 3790.03	-1690.22	 3056.85
     32.2870	 3536.00	 3790.69	-1634.88	 3054.53
     32.3130	 3537.00	 3791.45	-1634.64	 3052.22
     32.3390	 3564.00	 3792.31	-1608.50	 3049.90
     32.3650	 3579.00	 3793.26	-1594.45	 3047.58
     32.3910	 3545.00	 3794.32	-1629.52	 3045.26
     32.4170	 3592.00	 3795.49	-1583.68	 3042.94
     32.4430	 3648.00	 3796.77	-1528.96	 3040.62
     32.4690	 3579.00	 3798.15	-1599.34	 3038.30
     32.4950	 3557.00	 3799.65	-1622.84	 3035.98
     32.5210	 3551.00	 3801.26	-1630.45	 3033.66
     32.5470	 3540.00	 3803.00	-1643.19	 3031.34
     32.5730	 3621.00	 3804.85	-1564.04	 3029.02
     32.5990	 3620.00	 3806.83	-1567.02	 3026.71
     32.6250	 3607.00	 3808.93	-1582.12	 3024.39
     32.6510	 3604.00	 3811.17	-1587.36	 3022.07
     32.6770	 3619.00	 3813.55	-1574.74	 3019.75
     32.7030	 3707.00	 3816.06	-1489.25	 3017.43
     32.7290	 3741.00	 3818.71	-1457.90	 3015.11
     32.7550	 3735.00	 3821.51	-1466.70	 3012.79
     32.7810	 3681.00	 3824.47	-1523.66	 3010.47
     32.8070	 3686.00	 3827.57	-1521.76	 3008.15
     32.8330	 3730.00	 3830.84	-1481.03	 3005.83
     32.8590	 3662.00	 3834.28	-1552.47	 3003.51
     32.8850	 3622.00	 3837.88	-1596.07	 3001.19
     32.9110	 3693.00	 3841.66	-1528.85	 2998.88
     32.9370	 3657.00	 3845.62	-1568.81	 2996.56
     32.9630	 3684.00	 3849.77	-1545.96	 2994.24
     32.9890	 3657.00	 3854.10	-1577.29	 2991.92
     33.0150	 3692.00	 3858.64	-1546.83	 2989.60
     33.0410	 3732.00	 3863.38	-1511.57	 2987.28
     33.0670	 3675.00	 3868.34	-1573.53	 2984.96
     33.0930	 3780.00	 3873.40	-1473.59	 2982.53
     33.1190	 3701.00	 3876.65	-1555.84	 2978.06
     33.1450	 3797.00	 3880.13	-1463.32	 2973.59
     33.1710	 3784.00	 3883.86	-1480.05	 2969.13
     33.1970	 3771.00	 3887.83	-1497.03	 2964.66
     33.2230	 3784.00	 3892.07	-1488.26	 2960.19
     33.2490	 3879.00	 3896.57	-1397.76	 2955.73
     33.2750	 3828.00	 3901.35	-1453.54	 2951.26
     33.3010	 3797.00	 3906.41	-1489.60	 2946.79
     33.3270	 3867.00	 3911.77	-1424.96	 2942.33
     33.3530	 3845.00	 3917.44	-1452.63	 2937.86
     33.3790	 3862.00	 3923.42	-1441.61	 2933.39
     33.4050	 3878.00	 3929.73	-1431.92	 2928.93
     33.4310	 3891.00	 3936.38	-1425.57	 2924.46
     33.4570	 4045.00	 3943.39	-1278.58	 2919.99
     33.4830	 3939.00	 3950.75	-1391.94	 2915.53
     33.5090	 3900.00	 3958.50	-1438.69	 2911.06
     33.5350	 3970.00	 3966.63	-1376.82	 2906.59
     33.5610	 4037.00	 3975.17	-1318.36	 2902.13
     33.5870	 4058.00	 3984.13	-1306.32	 2897.66
     33.6130	 4017.00	 3993.52	-1356.71	 2893.19
     33.6390	 4022.00	 4003.36	-1361.55	 2888.73
     33.6650	 4167.00	 4013.66	-1226.85	 2884.26
     33.6910	 4078.00	 4024.44	-1326.64	 2879.79
     33.7170	 4117.00	 4035.73	-1298.92	 2875.33
     33.7430	 4090.00	 4047.52	-1337.71	 2870.86
     33.7690	 4103.00	 4059.85	-1337.04	 2866.39
     33.7950	 4116.00	 4072.73	-1336.92	 2861.93
     33.8210	 4241.00	 4086.17	-1225.36	 2857.46
     33.8470	 4259.00	 4100.21	-1221.40	 2852.99
     33.8730	 4191.00	 4114.85	-1304.04	 2848.53
     33.8990	 4264.00	 4130.12	-1246.31	 2844.06
     33.9250	 4260.00	 4146.03	-1266.22	 2839.59
     33.9510	 4315.00	 4162.61	-1227.80	 2835.13
     33.9770	 4368.00	 4179.88	-1192.07	 2830.66
     34.0030	 4418.00	 4197.85	-1160.04	 2826.19
     34.0290	 4371.00	 4216.54	-1225.73	 2821.73
     34.0550	 4408.00	 4235.98	-1208.17	 2817.26
     34.0810	 4405.00	 4256.19	-1231.38	 2812.79
     34.1070	 4372.00	 4277.17	-1285.36	 2808.33
     34.1330	 4443.00	 4298.96	-1236.15	 2803.86
     34.1590	 4640.00	 4321.57	-1061.76	 2799.39
     34.1850	 4573.00	 4345.00	-1152.19	 2794.93
     34.2110	 4549.00	 4369.29	-1200.48	 2790.46
     34.2370	 4615.00	 4394.43	-1159.62	 2785.99
     34.2630	 4592.00	 4420.45	-1208.64	 2781.53
     34.2890	 4657.00	 4447.34	-1170.53	 2777.06
     34.3150	 4710.00	 4475.12	-1145.31	 2772.59
     34.3410	 4698.00	 4503.77	-1185.96	 2768.13
     34.3670	 4725.00	 4533.31	-1188.50	 2763.66
     34.3930	 4772.00	 4563.72	-1171.91	 2759.19
     34.4190	 4813.00	 4594.99	-1162.18	 2754.73
     34.4450	 4945.00	 4627.10	-1062.29	 2750.26
     34.4710	 4923.00	 4660.04	-1117.23	 2745.79
     34.4970	 4916.00	 4693.76	-1157.95	 2741.33
     34.5230	 4913.00	 4728.23	-1195.42	 2736.86
     34.5490	 4891.00	 4763.40	-1252.59	 2732.39
     34.5750	 4885.00	 4799.22	-1294.41	 2727.93
     34.6010	 5068.00	 4835.61	-1147.80	 2723.46
     34.6270	 5020.00	 4872.50	-1232.69	 2718.99
     34.6530	 5092.00	 4909.81	-1198.00	 2714.53
     34.6790	 5008.00	 4947.43	-1319.62	 2710.06
     34.7050	 5061.00	 4985.25	-1304.44	 2705.59
     34.7310	 5290.00	 5023.15	-1113.34	 2701.13
     34.7570	 5278.00	 5060.98	-1163.17	 2696.66
     34.7830	 5249.00	 5098.60	-1229.79	 2692.19
     34.8090	 5182.00	 5135.85	-1334.04	 2687.73
     34.8350	 5219.00	 5172.54	-1333.73	 2683.26
     34.8610	 5298.00	 5208.50	-1290.69	 2678.79
     34.8870	 5338.00	 5243.53	-1285.72	 2674.33
     34.9130	 5258.00	 5277.42	-1399.61	 2669.86
     34.9390	 5237.00	 5309.96	-1453.15	 2665.39
     34.9650	 5364.00	 5340.94	-1357.13	 2660.93
     34.9910	 5475.00	 5370.14	-1275.33	 2656.46
     35.0170	 5505.00	 5397.34	-1272.53	 2651.99
     35.0430	 5457.00	 5422.33	-1345.52	 2647.53
     35.0690	 5367.00	 5444.90	-1458.09	 2643.06
     35.0950	 5271.00	 5464.85	-1574.04	 2638.59
     35.1210	 5332.00	 5482.01	-1530.20	 2634.13
     35.1470	 5440.00	 5496.20	-1436.39	 2629.66
     35.1730	 5420.00	 5507.28	-1467.47	 2625.19
     35.1990	 5438.00	 5515.13	-1457.32	 2620.73
     35.2250	 5453.00	 5519.65	-1446.84	 2616.26
     35.2510	 5435.00	 5520.76	-1465.95	 2611.79
     35.2770	 5438.00	 5518.43	-1460.62	 2607.33
     35.3030	 5353.00	 5512.64	-1539.83	 2602.86
     35.3290	 5326.00	 5503.42	-1557.61	 2598.39
     35.3550	 5393.00	 5490.81	-1478.00	 2593.93
     35.3810	 5377.00	 5474.88	-1478.07	 2589.46
     35.4070	 5376.00	 5455.75	-1459.94	 2584.99
     35.4330	 5350.00	 5433.53	-1463.72	 2580.53
     35.4590	 5326.00	 5408.39	-1462.58	 2576.06
     35.4850	 5340.00	 5380.49	-1420.68	 2571.59
     35.5110	 5276.00	 5350.01	-1454.21	 2567.13
     35.5370	 5243.00	 5317.18	-1454.37	 2562.66
     35.5630	 5270.00	 5282.19	-1392.38	 2558.19
     35.5890	 5278.00	 5245.25	-1347.44	 2553.73
     35.6150	 5220.00	 5206.60	-1366.79	 2549.26
     35.6410	 5216.00	 5166.47	-1330.66	 2544.79
     35.6670	 5132.00	 5125.05	-1373.24	 2540.33
     35.6930	 5033.00	 5082.57	-1429.76	 2535.86
     35.7190	 5050.00	 5039.24	-1369.43	 2531.39
     35.7450	 4947.00	 4995.27	-1428.46	 2526.93
     35.7710	 4883.00	 4950.84	-1448.03	 2522.46
     35.7970	 4825.00	 4906.13	-1461.32	 2517.99
     35.8230	 4769.00	 4861.32	-1472.51	 2513.53
     35.8490	 4762.00	 4816.56	-1434.75	 2509.06
     35.8750	 4752.00	 4771.99	-1400.18	 2504.59
     35.9010	 4751.00	 4727.76	-1356.95	 2500.13
     35.9270	 4718.00	 4683.98	-1346.17	 2495.66
     35.9530	 4677.00	 4640.77	-1343.96	 2491.19
     35.9790	 4564.00	 4598.22	-1414.42	 2486.73
     36.0050	 4581.00	 4556.44	-1355.63	 2482.26
     36.0310	 4595.00	 4515.50	-1300.69	 2477.79
     36.0570	 4498.00	 4475.49	-1357.68	 2473.33
     36.0830	 4443.00	 4436.46	-1373.65	 2468.86
     36.1090	 4544.00	 4398.48	-1234.67	 2464.39
     36.1350	 4551.00	 4361.61	-1190.80	 2459.93
     36.1610	 4400.00	 4325.91	-1306.10	 2455.46
     36.1870	 4360.00	 4291.43	-1311.62	 2450.99
     36.2130	 4495.00	 4258.21	-1143.40	 2446.53
     36.2390	 4357.00	 4226.31	-1249.50	 2442.06
     36.2650	 4254.00	 4195.79	-1321.98	 2437.59
     36.2910	 4249.00	 4166.69	-1297.88	 2433.13
     36.3170	 4209.00	 4139.06	-1310.25	 2428.66
     36.3430	 4237.00	 4112.98	-1256.17	 2424.19
     36.3690	 4271.00	 4088.51	-1197.70	 2419.73
     36.3950	 4321.00	 4065.70	-1124.90	 2415.26
     36.4210	 4243.00	 4044.66	-1181.85	 2410.79
     36.4470	 4120.00	 4025.45	-1285.64	 2406.33
     36.4730	 4215.00	 4008.17	-1173.36	 2401.86
     36.4990	 4232.00	 3992.95	-1141.14	 2397.44
     36.5250	 4244.00	 3980.00	-1116.19	 2393.16
     36.5510	 4086.00	 3969.26	-1263.45	 2388.89
     36.5770	 4177.00	 3960.83	-1164.02	 2384.61
     36.6030	 4114.00	 3954.78	-1220.97	 2380.33
     36.6290	 4118.00	 3951.14	-1213.33	 2376.05
     36.6550	 4136.00	 3949.92	-1194.11	 2371.78
     36.6810	 4027.00	 3951.04	-1304.23	 2367.50
     36.7070	 4051.00	 3954.30	-1283.49	 2363.22
     36.7330	 3964.00	 3959.40	-1375.59	 2358.94
     36.7590	 4170.00	 3965.85	-1176.04	 2354.66
     36.7850	 4131.00	 3972.98	-1222.17	 2350.39
     36.8110	 4108.00	 3979.91	-1252.10	 2346.11
     36.8370	 4006.00	 3985.58	-1359.77	 2341.83
     36.8630	 3855.00	 3988.82	-1514.01	 2337.55
     36.8890	 3925.00	 3988.44	-1443.63	 2333.28
     36.9150	 3967.00	 3983.36	-1396.55	 2329.00
     36.9410	 3811.00	 3972.74	-1541.93	 2324.72
     36.9670	 3863.00	 3956.10	-1473.29	 2320.44
     36.9930	 3948.00	 3933.37	-1365.56	 2316.17
     37.0190	 3843.00	 3904.88	-1442.07	 2311.89
     37.0450	 3770.00	 3871.32	-1481.51	 2307.61
     37.0710	 3729.00	 3833.64	-1484.83	 2303.33
     37.0970	 3713.00	 3792.93	-1460.12	 2299.06
     37.1230	 3653.00	 3750.28	-1477.47	 2294.78
     37.1490	 3704.00	 3706.73	-1382.92	 2290.50
     37.1750	 3674.00	 3663.20	-1369.39	 2286.22
     37.2010	 3571.00	 3620.39	-1429.58	 2281.94
     37.2270	 3531.00	 3578.85	-1428.04	 2277.67
     37.2530	 3453.00	 3538.94	-1466.13	 2273.39
     37.2790	 3450.00	 3500.91	-1431.10	 2269.11
     37.3050	 3465.00	 3464.85	-1380.04	 2264.83
     37.3310	 3473.00	 3430.78	-1337.97	 2260.56
     37.3570	 3433.00	 3398.67	-1345.86	 2256.28
     37.3830	 3299.00	 3368.44	-1449.63	 2252.00
     37.4090	 3316.00	 3339.98	-1404.17	 2247.72
     37.4350	 3288.00	 3313.18	-1405.37	 2243.45
     37.4610	 3303.00	 3287.90	-1365.09	 2239.17
     37.4870	 3273.00	 3264.04	-1371.23	 2234.89
     37.5130	 3211.00	 3241.48	-1410.67	 2230.61
     37.5390	 3174.00	 3220.10	-1426.29	 2226.33
     37.5650	 3155.00	 3199.80	-1424.99	 2222.06
     37.5910	 3102.00	 3180.49	-1458.69	 2217.78
     37.6170	 3059.00	 3162.09	-1483.28	 2213.50
     37.6430	 3114.00	 3144.52	-1410.71	 2209.22
     37.6690	 3088.00	 3127.69	-1419.89	 2204.95
     37.6950	 3025.00	 3111.57	-1466.76	 2200.67
     37.7210	 3011.00	 3096.07	-1465.27	 2196.39
     37.7470	 3031.00	 3081.16	-1430.35	 2192.11
     37.7730	 3050.00	 3066.79	-1396.98	 2187.84
     37.7990	 2981.00	 3052.91	-1452.10	 2183.56
     37.8250	 2977.00	 3039.49	-1442.68	 2179.28
     37.8510	 3033.00	 3026.49	-1373.68	 2175.00
     37.8770	 3002.00	 3013.89	-1392.08	 2170.73
     37.9030	 2969.00	 3001.65	-1412.84	 2166.45
     37.9290	 2897.00	 2989.74	-1472.93	 2162.17
     37.9550	 2859.00	 2978.16	-1499.35	 2157.89
     37.9810	 2921.00	 2966.87	-1426.06	 2153.62
     38.0070	 2882.00	 2955.87	-1454.06	 2149.34
     38.0330	 2847.00	 2945.12	-1478.31	 2145.06
     38.0590	 2924.00	 2934.61	-1390.81	 2140.78
     38.0850	 2925.00	 2924.35	-1379.54	 2136.50
     38.1110	 2838.00	 2914.29	-1456.48	 2132.23
     38.1370	 2863.00	 2904.45	-1421.64	 2127.95
     38.1630	 2795.00	 2894.80	-1479.99	 2123.67
     38.1890	 2856.00	 2885.33	-1409.52	 2119.39
     38.2150	 2863.00	 2876.04	-1393.23	 2115.12
     38.2410	 2890.00	 2866.92	-1357.11	 2110.84
     38.2670	 2936.00	 2857.96	-1302.15	 2106.56
     38.2930	 2890.00	 2849.15	-1339.34	 2102.28
     38.3190	 2808.00	 2840.48	-1412.67	 2098.01
     38.3450	 2847.00	 2831.95	-1365.14	 2093.73
     38.3710	 2879.00	 2823.55	-1324.74	 2089.45
     38.3970	 2791.00	 2815.28	-1404.48	 2085.17
     38.4230	 2751.00	 2807.14	-1436.33	 2080.90
     38.4490	 2753.00	 2799.10	-1426.29	 2076.62
     38.4750	 2772.00	 2791.18	-1399.37	 2072.34
     38.5010	 2773.00	 2783.37	-1390.56	 2068.06
     38.5270	 2806.00	 2775.66	-1349.85	 2063.78
     38.5530	 2780.00	 2768.05	-1368.24	 2059.51
     38.5790	 2788.00	 2760.53	-1352.72	 2055.23
     38.6050	 2751.00	 2753.11	-1382.30	 2050.95
     38.6310	 2740.00	 2745.77	-1385.96	 2046.67
     38.6570	 2813.00	 2738.52	-1305.71	 2042.40
     38.6830	 2688.00	 2731.36	-1423.55	 2038.12
     38.7090	 2676.00	 2724.27	-1428.46	 2033.84
     38.7350	 2710.00	 2717.26	-1387.45	 2029.56
     38.7610	 2779.00	 2710.33	-1311.52	 2025.29
     38.7870	 2640.00	 2703.47	-1443.66	 2021.01
     38.8130	 2693.00	 2696.68	-1383.87	 2016.73
     38.8390	 2667.00	 2689.96	-1403.15	 2012.45
     38.8650	 2663.00	 2683.30	-1400.49	 2008.17
     38.8910	 2722.00	 2676.71	-1334.90	 2003.90
     38.9170	 2720.00	 2670.18	-1330.37	 1999.62
     38.9430	 2695.00	 2663.72	-1348.91	 1995.34
     38.9690	 2605.00	 2657.31	-1432.50	 1991.06
     38.9950	 2710.00	 2650.96	-1321.15	 1986.79
     39.0210	 2687.00	 2644.66	-1337.85	 1982.51
     39.0470	 2682.00	 2638.43	-1336.62	 1978.23
     39.0730	 2569.00	 2632.24	-1443.43	 1973.95
     39.0990	 2651.00	 2626.11	-1355.30	 1969.68
     39.1250	 2628.00	 2620.03	-1372.22	 1965.40
     39.1510	 2633.00	 2614.00	-1361.19	 1961.12
     39.1770	 2593.00	 2608.01	-1395.20	 1956.84
     39.2030	 2569.00	 2602.08	-1413.27	 1952.57
     39.2290	 2641.00	 2596.19	-1335.38	 1948.29
     39.2550	 2698.00	 2590.35	-1272.54	 1944.01
     39.2810	 2693.00	 2584.55	-1271.74	 1939.73
     39.3070	 2719.00	 2578.80	-1239.99	 1935.46
     39.3330	 2597.00	 2573.09	-1356.28	 1931.18
     39.3590	 2601.00	 2567.42	-1346.62	 1926.90
     39.3850	 2572.00	 2561.80	-1369.99	 1922.62
     39.4110	 2515.00	 2556.22	-1421.41	 1918.34
     39.4370	 2596.00	 2550.68	-1334.87	 1914.07
     39.4630	 2590.00	 2545.17	-1335.36	 1909.79
     39.4890	 2624.00	 2539.71	-1295.90	 1905.51
     39.5150	 2585.00	 2537.60	-1332.79	 1904.55
     39.5410	 2493.00	 2535.75	-1422.94	 1903.80
     39.5670	 2526.00	 2533.93	-1388.12	 1903.06
     39.5930	 2568.00	 2532.16	-1344.35	 1902.31
     39.6190	 2527.00	 2530.42	-1383.61	 1901.56
     39.6450	 2603.00	 2528.71	-1305.90	 1900.82
     39.6710	 2613.00	 2527.05	-1294.24	 1900.07
     39.6970	 2516.00	 2525.42	-1389.61	 1899.33
     39.7230	 2562.00	 2523.82	-1342.02	 1898.58
     39.7490	 2530.00	 2522.27	-1372.46	 1897.83
     39.7750	 2642.00	 2520.75	-1258.94	 1897.09
     39.8010	 2592.00	 2519.26	-1307.45	 1896.34
     39.8270	 2514.00	 2517.81	-1384.00	 1895.59
     39.8530	 2546.00	 2516.40	-1350.59	 1894.85
     39.8790	 2522.00	 2515.02	-1373.21	 1894.10
     39.9050	 2475.00	 2513.67	-1418.86	 1893.36
     39.9310	 2511.00	 2512.37	-1381.56	 1892.61
     39.9570	 2531.00	 2511.10	-1360.29	 1891.86
     39.9830	 2549.00	 2509.86	-1341.05	 1891.12
     40.0090	 2515.00	 2508.66	-1373.85	 1890.37
     40.0350	 2531.00	 2507.50	-1356.69	 1889.63
     40.0610	 2576.00	 2506.37	-1310.56	 1888.88
     40.0870	 2541.00	 2505.28	-1344.47	 1888.13
     40.1130	 2540.00	 2504.22	-1344.41	 1887.39
     40.1390	 2482.00	 2503.21	-1401.40	 1886.64
     40.1650	 2456.00	 2502.23	-1426.42	 1885.90
     40.1910	 2469.00	 2501.29	-1412.48	 1885.15
     40.2170	 2516.00	 2500.39	-1364.58	 1884.40
     40.2430	 2536.00	 2499.52	-1343.71	 1883.66
     40.2690	 2526.00	 2498.70	-1352.89	 1882.91
     40.2950	 2514.00	 2497.92	-1364.11	 1882.16
     40.3210	 2504.00	 2497.17	-1373.36	 1881.42
     40.3470	 2531.00	 2496.47	-1345.66	 1880.67
     40.3730	 2528.00	 2495.82	-1348.01	 1879.93
     40.3990	 2497.00	 2495.20	-1378.39	 1879.18
     40.4250	 2466.00	 2494.63	-1408.82	 1878.43
     40.4510	 2485.00	 2494.11	-1389.30	 1877.69
     40.4770	 2512.00	 2493.63	-1361.82	 1876.94
     40.5030	 2491.00	 2493.20	-1382.39	 1876.20
     40.5290	 2508.00	 2492.82	-1365.01	 1875.45
     40.5550	 2514.00	 2492.49	-1358.68	 1874.70
     40.5810	 2485.00	 2492.21	-1387.40	 1873.96
     40.6070	 2463.00	 2491.98	-1409.17	 1873.21
     40.6330	 2442.00	 2491.81	-1430.00	 1872.47
     40.6590	 2422.00	 2491.69	-1449.88	 1871.72
     40.6850	 2432.00	 2491.64	-1439.83	 1870.97
     40.7110	 2430.00	 2491.64	-1441.83	 1870.23
     40.7370	 2458.00	 2491.70	-1413.89	 1869.48
     40.7630	 2480.00	 2491.83	-1392.02	 1868.73
     40.7890	 2537.00	 2492.03	-1335.22	 1867.99
     40.8150	 2483.00	 2492.29	-1389.48	 1867.24
     40.8410	 2457.00	 2492.63	-1415.82	 1866.50
     40.8670	 2455.00	 2493.04	-1418.23	 1865.75
     40.8930	 2514.00	 2493.53	-1359.72	 1865.00
     40.9190	 2438.00	 2494.10	-1436.29	 1864.26
     40.9450	 2475.00	 2495.07	-1400.26	 1863.51
     40.9710	 2540.00	 2495.81	-1336.00	 1862.77
     40.9970	 2497.00	 2496.64	-1379.83	 1862.02
     41.0230	 2479.00	 2497.58	-1398.77	 1861.27
     41.0490	 2451.00	 2498.61	-1427.80	 1860.53
     41.0750	 2518.00	 2499.74	-1361.93	 1859.78
     41.1010	 2539.00	 2501.15	-1342.34	 1859.04
     41.1270	 2546.00	 2503.12	-1337.31	 1858.90
     41.1530	 2565.00	 2505.26	-1320.45	 1858.81
     41.1790	 2468.00	 2507.52	-1419.71	 1858.71
     41.2050	 2460.00	 2509.92	-1430.11	 1858.62
     41.2310	 2482.00	 2512.46	-1410.65	 1858.52
     41.2570	 2555.00	 2515.15	-1340.34	 1858.43
     41.2830	 2455.00	 2518.00	-1443.19	 1858.33
     41.3090	 2480.00	 2521.02	-1421.21	 1858.23
     41.3350	 2476.00	 2524.21	-1428.40	 1858.14
     41.3610	 2487.00	 2527.59	-1420.78	 1858.04
     41.3870	 2452.00	 2531.17	-1459.36	 1857.95
     41.4130	 2519.00	 2534.96	-1396.15	 1857.85
     41.4390	 2548.00	 2538.97	-1371.16	 1857.76
     41.4650	 2530.00	 2543.22	-1393.41	 1857.66
     41.4910	 2488.00	 2547.72	-1439.91	 1857.57
     41.5170	 2457.00	 2552.50	-1475.69	 1857.47
     41.5430	 2513.00	 2557.56	-1424.75	 1857.37
     41.5690	 2400.00	 2562.93	-1543.12	 1857.28
     41.5950	 2451.00	 2568.63	-1497.82	 1857.18
     41.6210	 2465.00	 2574.68	-1489.87	 1857.09
     41.6470	 2494.00	 2581.11	-1467.30	 1856.99
     41.6730	 2460.00	 2587.95	-1508.14	 1856.90
     41.6990	 2452.00	 2595.22	-1523.41	 1856.80
     41.7250	 2570.00	 2602.96	-1413.15	 1856.70
     41.7510	 2447.00	 2611.21	-1544.40	 1856.61
     41.7770	 2574.00	 2620.00	-1426.19	 1856.51
     41.8030	 2485.00	 2629.39	-1524.58	 1856.42
     41.8290	 2531.00	 2639.41	-1488.60	 1856.32
     41.8550	 2467.00	 2650.13	-1563.32	 1856.23
     41.8810	 2435.00	 2661.59	-1606.78	 1856.13
     41.9070	 2601.00	 2673.88	-1453.07	 1856.03
     41.9330	 2419.00	 2687.06	-1648.25	 1855.94
     41.9590	 2572.00	 2701.20	-1509.39	 1855.84
     41.9850	 2559.00	 2716.41	-1537.60	 1855.75
     42.0110	 2527.00	 2732.78	-1585.97	 1855.65
     42.0370	 2505.00	 2750.43	-1625.62	 1855.56
     42.0630	 2538.00	 2769.47	-1611.66	 1855.46
     42.0890	 2603.00	 2790.05	-1567.24	 1855.36
     42.1150	 2676.00	 2812.33	-1516.52	 1855.27
     42.1410	 2744.00	 2836.48	-1472.67	 1855.17
     42.1670	 2748.00	 2862.69	-1494.88	 1855.08
     42.1930	 2865.00	 2891.19	-1406.38	 1854.98
     42.2190	 2908.00	 2922.21	-1394.40	 1854.89
     42.2450	 3024.00	 2956.04	-1312.23	 1854.79
     42.2710	 3142.00	 2992.98	-1231.17	 1854.69
     42.2970	 3104.00	 3033.37	-1309.56	 1854.60
     42.3230	 3162.00	 3077.59	-1295.78	 1854.50
     42.3490	 3302.00	 3126.04	-1204.23	 1854.41
     42.3750	 3443.00	 3179.20	-1116.39	 1854.31
     42.4010	 3526.00	 3237.56	-1091.75	 1854.22
     42.4270	 3573.00	 3301.66	-1108.85	 1854.12
     42.4530	 3679.00	 3372.08	-1073.27	 1854.02
     42.4790	 3766.00	 3449.42	-1063.61	 1853.93
     42.5050	 3882.00	 3534.31	-1032.50	 1853.83
     42.5310	 4022.00	 3627.32	 -985.51	 1853.74
     42.5570	 4072.00	 3729.00	-1037.19	 1853.64
     42.5830	 4310.00	 3839.80	 -909.99	 1853.55
     42.6090	 4442.00	 3959.95	 -898.14	 1853.45
     42.6350	 4507.00	 4089.39	 -962.58	 1853.36
     42.6610	 4663.00	 4227.62	 -944.81	 1853.26
     42.6870	 4771.00	 4373.63	 -982.82	 1853.16
     42.7130	 4800.00	 4525.57	-1105.76	 1853.07
     42.7390	 4879.00	 4680.73	-1181.92	 1852.97
     42.7650	 4979.00	 4835.37	-1236.56	 1852.88
     42.7910	 5100.00	 4984.83	-1265.02	 1852.78
     42.8170	 5142.00	 5123.53	-1361.72	 1852.69
     42.8430	 5175.00	 5245.47	-1450.67	 1852.59
     42.8690	 5191.00	 5344.73	-1533.92	 1852.49
     42.8950	 5246.00	 5416.12	-1550.31	 1852.40
     42.9210	 5265.00	 5455.76	-1570.95	 1852.30
     42.9470	 5278.00	 5461.61	-1563.80	 1852.21
     42.9730	 5296.00	 5433.61	-1517.80	 1852.11
     42.9990	 5250.00	 5373.62	-1503.81	 1852.02
     43.0250	 5201.00	 5285.15	-1464.34	 1851.92
     43.0510	 5069.00	 5172.88	-1484.07	 1851.82
     43.0770	 5002.00	 5042.23	-1420.42	 1851.73
     43.1030	 5052.00	 4898.73	-1226.92	 1851.63
     43.1290	 4971.00	 4747.74	-1156.93	 1851.54
     43.1550	 4785.00	 4594.00	-1189.19	 1851.44
     43.1810	 4697.00	 4441.49	-1124.69	 1851.35
     43.2070	 4623.00	 4293.25	-1050.45	 1851.25
     43.2330	 4509.00	 4151.52	-1022.71	 1851.15
     43.2590	 4389.00	 4017.75	-1008.94	 1851.06
     43.2850	 4168.00	 3892.77	-1104.96	 1850.96
     43.3110	 4124.00	 3776.88	-1033.07	 1850.87
     43.3370	 4008.00	 3670.04	-1042.23	 1850.77
     43.3630	 3840.00	 3572.00	-1112.19	 1850.68
     43.3890	 3819.00	 3482.27	-1043.46	 1850.58
     43.4150	 3646.00	 3400.32	-1134.51	 1850.48
     43.4410	 3454.00	 3325.57	-1251.76	 1850.39
     43.4670	 3389.00	 3257.44	-1248.63	 1850.29
     43.4930	 3335.00	 3195.32	-1240.51	 1850.20
     43.5190	 3228.00	 3138.68	-1290.87	 1850.10
     43.5450	 3143.00	 3086.99	-1324.18	 1850.01
     43.5710	 3010.00	 3039.80	-1409.99	 1849.91
     43.5970	 2969.00	 2996.63	-1407.82	 1849.81
     43.6230	 2894.00	 2957.12	-1443.31	 1849.72
     43.6490	 2891.00	 2920.89	-1410.08	 1849.62
     43.6750	 2732.00	 2887.63	-1535.82	 1849.53
     43.7010	 2652.00	 2857.04	-1585.23	 1849.43
     43.7270	 2618.00	 2828.86	-1591.05	 1849.34
     43.7530	 2618.00	 2802.87	-1565.06	 1849.24
     43.7790	 2619.00	 2778.85	-1540.04	 1849.15
     43.8050	 2572.00	 2756.61	-1564.81	 1849.05
     43.8310	 2484.00	 2736.00	-1632.19	 1848.95
     43.8570	 2586.00	 2716.86	-1511.05	 1848.86
     43.8830	 2513.00	 2699.05	-1566.25	 1848.76
     43.9090	 2531.00	 2682.47	-1531.66	 1848.67
     43.9350	 2435.00	 2667.00	-1612.19	 1848.57
     43.9610	 2433.00	 2652.54	-1599.73	 1848.48
     43.9870	 2484.00	 2639.02	-1535.21	 1848.38
     44.0130	 2425.00	 2626.35	-1581.54	 1848.28
     44.0390	 2466.00	 2614.47	-1528.66	 1848.19
     44.0650	 2469.00	 2603.30	-1514.49	 1848.09
     44.0910	 2520.00	 2592.80	-1452.99	 1848.00
     44.1170	 2523.00	 2582.92	-1440.11	 1847.90
     44.1430	 2499.00	 2573.59	-1454.78	 1847.81
     44.1690	 2426.00	 2564.80	-1518.99	 1847.71
     44.1950	 2485.00	 2556.49	-1451.68	 1847.61
     44.2210	 2490.00	 2548.62	-1438.81	 1847.52
     44.2470	 2454.00	 2541.18	-1467.37	 1847.42
     44.2730	 2558.00	 2534.12	-1356.31	 1847.33
     44.2990	 2532.00	 2527.43	-1375.62	 1847.23
     44.3250	 2427.00	 2521.08	-1474.27	 1847.14
     44.3510	 2473.00	 2515.03	-1422.22	 1847.04
     44.3770	 2443.00	 2509.29	-1446.48	 1846.94
     44.4030	 2512.00	 2503.82	-1372.01	 1846.85
     44.4290	 2449.00	 2498.60	-1429.79	 1846.75
     44.4550	 2423.00	 2493.63	-1450.82	 1846.66
     44.4810	 2421.00	 2488.88	-1448.07	 1846.56
     44.5070	 2486.00	 2484.35	-1378.54	 1846.47
     44.5330	 2452.00	 2480.01	-1408.20	 1846.37
     44.5590	 2382.00	 2475.87	-1474.06	 1846.27
     44.5850	 2416.00	 2471.90	-1436.09	 1846.18
     44.6110	 2389.00	 2468.09	-1459.28	 1846.08
     44.6370	 2374.00	 2464.45	-1470.64	 1845.99
     44.6630	 2388.00	 2460.95	-1453.14	 1845.89
     44.6890	 2430.00	 2457.59	-1407.78	 1845.80
     44.7150	 2428.00	 2454.36	-1406.56	 1845.70
     44.7410	 2492.00	 2451.26	-1339.46	 1845.60
     44.7670	 2445.00	 2448.28	-1383.47	 1845.51
     44.7930	 2452.00	 2445.41	-1373.60	 1845.41
     44.8190	 2464.00	 2442.65	-1358.84	 1845.32
     44.8450	 2424.00	 2439.99	-1396.18	 1845.22
     44.8710	 2468.00	 2437.42	-1349.61	 1845.13
     44.8970	 2462.00	 2434.95	-1353.14	 1845.03
     44.9230	 2509.00	 2432.56	-1303.75	 1844.94
     44.9490	 2397.00	 2430.25	-1413.44	 1844.84
     44.9750	 2354.00	 2428.03	-1454.22	 1844.74
     45.0010	 2352.00	 2425.87	-1454.06	 1844.65
     45.0270	 2388.00	 2423.79	-1415.98	 1844.55
     45.0530	 2450.00	 2421.78	-1351.97	 1844.46
     45.0790	 2383.00	 2419.83	-1417.02	 1844.36
     45.1050	 2361.00	 2417.94	-1437.13	 1844.27
     45.1310	 2394.00	 2416.11	-1402.30	 1844.17
     45.1570	 2393.00	 2414.34	-1401.53	 1844.07
     45.1830	 2390.00	 2412.62	-1402.81	 1843.98
     45.2090	 2400.00	 2410.96	-1391.15	 1843.88
     45.2350	 2418.00	 2409.34	-1371.53	 1843.79
     45.2610	 2383.00	 2407.77	-1404.96	 1843.69
     45.2870	 2386.00	 2406.25	-1400.44	 1843.60
     45.3130	 2438.00	 2404.76	-1346.95	 1843.50
     45.3390	 2389.00	 2403.32	-1394.52	 1843.40
     45.3650	 2387.00	 2401.93	-1395.12	 1843.31
     45.3910	 2437.00	 2400.56	-1343.75	 1843.21
     45.4170	 2392.00	 2399.24	-1387.43	 1843.12
     45.4430	 2362.00	 2398.13	-1416.32	 1843.20
     45.4690	 2357.00	 2397.55	-1420.74	 1843.78
     45.4950	 2328.00	 2397.01	-1449.20	 1844.36
     45.5210	 2340.00	 2396.49	-1436.68	 1844.95
     45.5470	 2340.00	 2396.01	-1436.20	 1845.53
     45.5730	 2357.00	 2395.56	-1418.75	 1846.11
     45.5990	 2365.00	 2395.13	-1410.32	 1846.70
     45.6250	 2369.00	 2394.74	-1405.93	 1847.28
     45.6510	 2385.00	 2394.36	-1389.55	 1847.86
     45.6770	 2345.00	 2394.02	-1429.21	 1848.44
     45.7030	 2383.00	 2393.70	-1390.89	 1849.03
     45.7290	 2398.00	 2393.40	-1375.59	 1849.61
     45.7550	 2385.00	 2393.12	-1388.31	 1850.19
     45.7810	 2380.00	 2392.86	-1393.06	 1850.78
     45.8070	 2304.00	 2392.63	-1468.82	 1851.36
     45.8330	 2359.00	 2392.42	-1413.61	 1851.94
     45.8590	 2362.00	 2392.22	-1410.41	 1852.53
     45.8850	 2338.00	 2392.05	-1434.24	 1853.11
     45.9110	 2385.00	 2391.89	-1387.08	 1853.69
     45.9370	 2410.00	 2391.75	-1361.94	 1854.27
     45.9630	 2430.00	 2391.63	-1341.82	 1854.86
     45.9890	 2421.00	 2391.53	-1350.72	 1855.44
     46.0150	 2418.00	 2391.44	-1353.63	 1856.02
     46.0410	 2424.00	 2391.36	-1347.55	 1856.61
     46.0670	 2334.00	 2391.30	-1437.50	 1857.19
     46.0930	 2360.00	 2391.26	-1411.45	 1857.77
     46.1190	 2377.00	 2391.23	-1394.42	 1858.36
     46.1450	 2290.00	 2391.22	-1481.41	 1858.94
     46.1710	 2353.00	 2391.21	-1418.40	 1859.52
     46.1970	 2415.00	 2391.22	-1356.41	 1860.11
     46.2230	 2438.00	 2391.25	-1333.44	 1860.69
     46.2490	 2333.00	 2391.28	-1438.47	 1861.27
     46.2750	 2294.00	 2391.33	-1477.52	 1861.85
     46.3010	 2365.00	 2391.39	-1406.58	 1862.44
     46.3270	 2398.00	 2391.46	-1373.65	 1863.02
     46.3530	 2417.00	 2391.54	-1354.73	 1863.60
     46.3790	 2371.00	 2391.63	-1400.82	 1864.19
     46.4050	 2346.00	 2391.73	-1425.92	 1864.77
     46.4310	 2350.00	 2391.84	-1422.03	 1865.35
     46.4570	 2388.00	 2391.96	-1384.16	 1865.94
     46.4830	 2419.00	 2392.10	-1353.29	 1866.52
     46.5090	 2436.00	 2392.24	-1336.43	 1867.10
     46.5350	 2340.00	 2392.38	-1432.57	 1867.69
     46.5610	 2370.00	 2392.54	-1402.73	 1868.27
     46.5870	 2436.00	 2392.71	-1336.90	 1868.85
     46.6130	 2264.00	 2392.88	-1509.07	 1869.43
     46.6390	 2322.00	 2393.06	-1451.26	 1870.02
     46.6650	 2273.00	 2393.26	-1500.45	 1870.60
     46.6910	 2362.00	 2393.45	-1411.64	 1871.18
     46.7170	 2306.00	 2393.66	-1467.85	 1871.77
     46.7430	 2395.00	 2393.87	-1379.06	 1872.35
     46.7690	 2337.00	 2394.09	-1437.28	 1872.93
     46.7950	 2402.00	 2394.32	-1372.51	 1873.52
     46.8210	 2362.00	 2394.55	-1412.74	 1874.10
     46.8470	 2383.00	 2394.79	-1391.98	 1874.68
     46.8730	 2397.00	 2395.04	-1378.23	 1875.27
     46.8990	 2443.00	 2395.29	-1332.48	 1875.85
     46.9250	 2372.00	 2395.55	-1403.74	 1876.43
     46.9510	 2308.00	 2395.82	-1468.01	 1877.01
     46.9770	 2332.00	 2396.09	-1444.28	 1877.60
     47.0030	 2343.00	 2396.36	-1433.55	 1878.18
     47.0290	 2348.00	 2396.65	-1428.84	 1878.76
     47.0550	 2414.00	 2396.93	-1363.12	 1879.35
     47.0810	 2330.00	 2397.23	-1447.42	 1879.93
     47.1070	 2397.00	 2397.53	-1380.72	 1880.51
     47.1330	 2439.00	 2397.83	-1339.02	 1881.10
     47.1590	 2308.00	 2398.14	-1470.33	 1881.68
     47.1850	 2349.00	 2398.45	-1429.64	 1882.26
     47.2110	 2255.00	 2398.77	-1523.96	 1882.84
     47.2370	 2333.00	 2399.09	-1446.28	 1883.43
     47.2630	 2284.00	 2399.42	-1495.61	 1884.01
     47.2890	 2360.00	 2399.75	-1419.94	 1884.59
     47.3150	 2356.00	 2400.09	-1424.28	 1885.18
     47.3410	 2355.00	 2400.43	-1425.62	 1885.76
     47.3670	 2381.00	 2400.78	-1399.97	 1886.34
     47.3930	 2323.00	 2401.13	-1458.32	 1886.93
     47.4190	 2366.00	 2401.48	-1415.67	 1887.51
     47.4450	 2339.00	 2401.84	-1443.03	 1888.09
     47.4710	 2335.00	 2402.20	-1447.39	 1888.68
     47.4970	 2414.00	 2402.57	-1368.76	 1889.26
     47.5230	 2392.00	 2402.93	-1391.12	 1889.84
     47.5490	 2401.00	 2403.31	-1382.50	 1890.42
     47.5750	 2385.00	 2403.68	-1398.87	 1891.01
     47.6010	 2348.00	 2404.06	-1436.26	 1891.59
     47.6270	 2270.00	 2404.45	-1514.64	 1892.17
     47.6530	 2282.00	 2404.84	-1503.03	 1892.76
     47.6790	 2278.00	 2405.23	-1507.42	 1893.34
     47.7050	 2297.00	 2405.62	-1488.81	 1893.92
     47.7310	 2363.00	 2406.02	-1423.21	 1894.51
     47.7570	 2390.00	 2406.42	-1396.61	 1895.09
     47.7830	 2426.00	 2406.82	-1361.01	 1895.67
     47.8090	 2358.00	 2407.23	-1429.42	 1896.26
     47.8350	 2351.00	 2407.64	-1436.83	 1896.84
     47.8610	 2363.00	 2408.05	-1425.24	 1897.42
     47.8870	 2351.00	 2408.47	-1437.66	 1898.00
     47.9130	 2340.00	 2408.89	-1449.08	 1898.59
     47.9390	 2372.00	 2409.31	-1417.50	 1899.17
     47.9650	 2392.00	 2409.73	-1397.93	 1899.75
     47.9910	 2345.00	 2410.16	-1445.35	 1900.34
     48.0170	 2354.00	 2410.59	-1436.78	 1900.92
     48.0430	 2374.00	 2411.03	-1417.22	 1901.50
     48.0690	 2325.00	 2411.46	-1466.65	 1902.09
     48.0950	 2338.00	 2411.74	-1453.93	 1902.51
     48.1210	 2319.00	 2411.37	-1472.56	 1902.28
     48.1470	 2304.00	 2411.00	-1487.19	 1902.05
     48.1730	 2324.00	 2410.64	-1466.83	 1901.83
     48.1990	 2323.00	 2410.28	-1467.47	 1901.60
     48.2250	 2368.00	 2409.92	-1422.11	 1901.37
     48.2510	 2366.00	 2409.56	-1423.75	 1901.14
     48.2770	 2361.00	 2409.20	-1428.40	 1900.92
     48.3030	 2383.00	 2408.85	-1406.04	 1900.69
     48.3290	 2384.00	 2408.50	-1404.69	 1900.46
     48.3550	 2399.00	 2408.15	-1389.34	 1900.23
     48.3810	 2345.00	 2407.81	-1443.00	 1900.01
     48.4070	 2304.00	 2407.46	-1483.66	 1899.78
     48.4330	 2314.00	 2407.12	-1473.31	 1899.55
     48.4590	 2320.00	 2406.78	-1466.98	 1899.32
     48.4850	 2433.00	 2406.45	-1353.64	 1899.09
     48.5110	 2469.00	 2406.11	-1317.30	 1898.87
     48.5370	 2323.00	 2405.78	-1462.97	 1898.64
     48.5630	 2353.00	 2405.45	-1432.64	 1898.41
     48.5890	 2400.00	 2405.12	-1385.31	 1898.18
     48.6150	 2345.00	 2404.80	-1439.99	 1897.96
     48.6410	 2400.00	 2404.47	-1384.66	 1897.73
     48.6670	 2421.00	 2404.15	-1363.34	 1897.50
     48.6930	 2384.00	 2403.83	-1400.02	 1897.27
     48.7190	 2401.00	 2403.51	-1382.70	 1897.05
     48.7450	 2407.00	 2403.19	-1376.38	 1896.82
     48.7710	 2430.00	 2402.88	-1353.07	 1896.59
     48.7970	 2431.00	 2402.57	-1351.76	 1896.36
     48.8230	 2377.00	 2402.26	-1405.45	 1896.13
     48.8490	 2340.00	 2401.95	-1442.14	 1895.91
     48.8750	 2320.00	 2401.64	-1461.83	 1895.68
     48.9010	 2402.00	 2401.34	-1379.53	 1895.45
     48.9270	 2368.00	 2401.03	-1413.22	 1895.22
     48.9530	 2386.00	 2400.73	-1394.92	 1895.00
     48.9790	 2422.00	 2400.43	-1358.62	 1894.77
     49.0050	 2460.00	 2400.14	-1320.33	 1894.54
     49.0310	 2336.00	 2399.84	-1444.03	 1894.31
     49.0570	 2386.00	 2399.55	-1393.74	 1894.08
     49.0830	 2408.00	 2399.25	-1371.44	 1893.86
     49.1090	 2467.00	 2398.96	-1312.15	 1893.63
     49.1350	 2361.00	 2398.67	-1417.87	 1893.40
     49.1610	 2414.00	 2398.39	-1364.58	 1893.17
     49.1870	 2486.00	 2398.10	-1292.29	 1892.95
     49.2130	 2374.00	 2397.82	-1404.01	 1892.72
     49.2390	 2381.00	 2397.54	-1396.73	 1892.49
     49.2650	 2404.00	 2397.26	-1373.45	 1892.26
     49.2910	 2360.00	 2396.98	-1417.17	 1892.04
     49.3170	 2325.00	 2396.70	-1451.89	 1891.81
     49.3430	 2404.00	 2396.43	-1372.62	 1891.58
     49.3690	 2404.00	 2396.15	-1372.34	 1891.35
     49.3950	 2383.00	 2395.88	-1393.07	 1891.12
     49.4210	 2496.00	 2395.61	-1279.80	 1890.90
     49.4470	 2507.00	 2395.34	-1268.53	 1890.67
     49.4730	 2463.00	 2395.08	-1312.27	 1890.44
     49.4990	 2477.00	 2394.81	-1298.00	 1890.21
     49.5250	 2480.00	 2394.55	-1294.74	 1889.99
     49.5510	 2525.00	 2394.29	-1249.48	 1889.76
     49.5770	 2470.00	 2394.03	-1304.22	 1889.53
     49.6030	 2402.00	 2393.77	-1371.96	 1889.30
     49.6290	 2457.00	 2393.51	-1316.70	 1889.08
     49.6550	 2334.00	 2393.26	-1439.45	 1888.85
     49.6810	 2404.00	 2393.00	-1369.19	 1888.62
     49.7070	 2443.00	 2392.75	-1329.94	 1888.39
     49.7330	 2437.00	 2392.50	-1335.69	 1888.16
     49.7590	 2496.00	 2392.25	-1276.44	 1887.94
     49.7850	 2478.00	 2392.00	-1294.19	 1887.71
     49.8110	 2540.00	 2391.76	-1231.95	 1887.48
     49.8370	 2365.00	 2391.51	-1406.70	 1887.25
     49.8630	 2433.00	 2391.27	-1338.46	 1887.03
     49.8890	 2498.00	 2391.03	-1273.22	 1886.80
     49.9150	 2495.00	 2390.79	-1275.98	 1886.57
     49.9410	 2509.00	 2390.55	-1261.74	 1886.34
     49.9670	 2498.00	 2390.32	-1272.51	 1886.12
     49.9930	 2495.00	 2390.08	-1275.28	 1885.89
     50.0190	 2543.00	 2389.85	-1227.04	 1885.66
     50.0450	 2569.00	 2389.62	-1200.81	 1885.43
     50.0710	 2518.00	 2389.39	-1251.58	 1885.20
     50.0970	 2461.00	 2389.16	-1308.35	 1884.98
     50.1230	 2450.00	 2388.94	-1319.13	 1884.75
     50.1490	 2460.00	 2388.71	-1308.90	 1884.52
     50.1750	 2482.00	 2388.49	-1286.68	 1884.29
     50.2010	 2433.00	 2388.27	-1335.46	 1884.07
     50.2270	 2394.00	 2388.05	-1374.24	 1883.84
     50.2530	 2426.00	 2387.83	-1342.02	 1883.61
     50.2790	 2481.00	 2387.62	-1286.81	 1883.38
     50.3050	 2452.00	 2387.40	-1315.59	 1883.16
     50.3310	 2422.00	 2387.19	-1345.38	 1882.93
     50.3570	 2443.00	 2386.98	-1324.17	 1882.70
     50.3830	 2492.00	 2386.77	-1274.96	 1882.47
     50.4090	 2500.00	 2386.56	-1266.76	 1882.24
     50.4350	 2425.00	 2386.36	-1341.55	 1882.02
     50.4610	 2417.00	 2386.16	-1349.35	 1881.79
     50.4870	 2428.00	 2385.95	-1338.14	 1881.56
     50.5130	 2462.00	 2385.75	-1303.94	 1881.33
     50.5390	 2406.00	 2385.55	-1359.75	 1881.11
     50.5650	 2429.00	 2385.36	-1336.55	 1880.88
     50.5910	 2488.00	 2385.16	-1277.35	 1880.65
     50.6170	 2464.00	 2384.97	-1301.16	 1880.42
     50.6430	 2430.00	 2384.78	-1334.97	 1880.20
     50.6690	 2388.00	 2384.59	-1376.78	 1879.97
     50.6950	 2354.00	 2384.40	-1410.59	 1879.74
     50.7210	 2387.00	 2384.22	-1377.41	 1879.51
     50.7470	 2478.00	 2384.03	-1286.22	 1879.28
     50.7730	 2477.00	 2383.85	-1287.04	 1879.06
     50.7990	 2440.00	 2383.67	-1323.86	 1878.83
     50.8250	 2478.00	 2383.49	-1285.68	 1878.60
     50.8510	 2486.00	 2383.32	-1277.51	 1878.37
     50.8770	 2444.00	 2383.14	-1319.34	 1878.15
     50.9030	 2370.00	 2382.97	-1393.16	 1877.92
     50.9290	 2336.00	 2382.80	-1426.99	 1877.69
     50.9550	 2400.00	 2382.64	-1362.83	 1877.46
     50.9810	 2390.00	 2382.47	-1372.66	 1877.23
     51.0070	 2340.00	 2382.31	-1422.50	 1877.01
     51.0330	 2371.00	 2382.15	-1391.34	 1876.78
     51.0590	 2389.00	 2381.99	-1373.18	 1876.55
     51.0850	 2403.00	 2381.83	-1359.02	 1876.32
     51.1110	 2398.00	 2381.67	-1363.86	 1876.10
     51.1370	 2395.00	 2381.52	-1366.71	 1875.87
     51.1630	 2438.00	 2381.37	-1323.56	 1875.64
     51.1890	 2418.00	 2381.22	-1343.41	 1875.41
     51.2150	 2349.00	 2381.08	-1412.27	 1875.19
     51.2410	 2394.00	 2380.93	-1367.12	 1874.96
     51.2670	 2430.00	 2380.79	-1330.98	 1874.73
     51.2930	 2416.00	 2380.65	-1344.84	 1874.50
     51.3190	 2381.00	 2380.52	-1379.71	 1874.27
     51.3450	 2297.00	 2380.38	-1463.57	 1874.05
     51.3710	 2348.00	 2380.25	-1412.44	 1873.82
     51.3970	 2379.00	 2380.12	-1381.31	 1873.59
     51.4230	 2376.00	 2380.00	-1384.19	 1873.36
     51.4490	 2285.00	 2379.87	-1475.06	 1873.14
     51.4750	 2408.00	 2379.75	-1351.94	 1872.91
     51.5010	 2342.00	 2379.63	-1417.82	 1872.68
     51.5270	 2330.00	 2379.52	-1429.71	 1872.45
     51.5530	 2370.00	 2379.40	-1389.59	 1872.23
     51.5790	 2373.00	 2379.29	-1386.48	 1872.00
     51.6050	 2334.00	 2379.22	-1425.41	 1871.77
     51.6310	 2352.00	 2379.12	-1407.31	 1871.54
     51.6570	 2313.00	 2379.02	-1446.21	 1871.31
     51.6830	 2300.00	 2378.92	-1459.11	 1871.09
     51.7090	 2361.00	 2378.82	-1398.01	 1870.86
     51.7350	 2379.00	 2378.73	-1379.92	 1870.63
     51.7610	 2421.00	 2378.64	-1337.83	 1870.40
     51.7870	 2333.00	 2378.57	-1425.76	 1870.18
     51.8130	 2271.00	 2378.49	-1487.68	 1869.95
     51.8390	 2353.00	 2378.41	-1405.60	 1869.72
     51.8650	 2350.00	 2378.33	-1408.52	 1869.49
     51.8910	 2361.00	 2378.26	-1397.45	 1869.27
     51.9170	 2315.00	 2378.19	-1443.38	 1869.04
     51.9430	 2411.00	 2378.12	-1347.31	 1868.81
     51.9690	 2318.00	 2378.06	-1440.25	 1868.58
     51.9950	 2347.00	 2378.00	-1411.19	 1868.35
     52.0210	 2324.00	 2377.94	-1434.13	 1868.13
     52.0470	 2307.00	 2377.89	-1451.08	 1867.90
     52.0730	 2444.00	 2377.84	-1314.03	 1867.67
     52.0990	 2345.00	 2377.80	-1412.99	 1867.44
     52.1250	 2433.00	 2377.76	-1324.95	 1867.22
     52.1510	 2340.00	 2377.72	-1417.91	 1866.99
     52.1770	 2386.00	 2377.69	-1371.88	 1866.76
     52.2030	 2470.00	 2377.66	-1287.85	 1866.53
     52.2290	 2389.00	 2377.64	-1368.83	 1866.31
     52.2550	 2290.00	 2377.62	-1467.81	 1866.08
     52.2810	 2331.00	 2377.60	-1426.79	 1865.85
     52.3070	 2332.00	 2377.59	-1425.78	 1865.62
     52.3330	 2349.00	 2377.58	-1408.77	 1865.39
     52.3590	 2373.00	 2377.58	-1384.77	 1865.17
     52.3850	 2316.00	 2377.58	-1441.77	 1864.94
     52.4110	 2392.00	 2377.59	-1365.78	 1864.71
     52.4370	 2374.00	 2377.60	-1383.79	 1864.48
     52.4630	 2328.00	 2377.62	-1429.81	 1864.26
     52.4890	 2342.00	 2377.64	-1415.83	 1864.03
     52.5150	 2363.00	 2377.67	-1394.86	 1863.80
     52.5410	 2394.00	 2377.70	-1363.89	 1863.57
     52.5670	 2229.00	 2377.74	-1528.93	 1863.34
     52.5930	 2271.00	 2377.79	-1486.98	 1863.12
     52.6190	 2310.00	 2377.84	-1448.03	 1862.89
     52.6450	 2301.00	 2377.89	-1457.08	 1862.66
     52.6710	 2295.00	 2377.96	-1463.15	 1862.43
     52.6970	 2386.00	 2378.02	-1372.21	 1862.21
     52.7230	 2354.00	 2378.10	-1404.29	 1861.98
     52.7490	 2349.00	 2378.18	-1409.37	 1861.75
     52.7750	 2337.00	 2378.26	-1421.45	 1861.52
     52.8010	 2298.00	 2378.36	-1460.55	 1861.30
     52.8270	 2320.00	 2378.46	-1438.65	 1861.07
     52.8530	 2315.00	 2378.56	-1443.76	 1860.84
     52.8790	 2336.00	 2378.68	-1422.87	 1860.61
     52.9050	 2380.00	 2378.80	-1378.99	 1860.39
     52.9310	 2282.00	 2378.93	-1477.12	 1860.16
     52.9570	 2273.00	 2379.07	-1486.26	 1859.93
     52.9830	 2231.00	 2379.21	-1528.40	 1859.70
     53.0090	 2237.00	 2379.36	-1522.55	 1859.47
     53.0350	 2317.00	 2379.52	-1442.71	 1859.25
     53.0610	 2336.00	 2379.69	-1423.88	 1859.02
     53.0870	 2311.00	 2379.87	-1449.06	 1858.79
     53.1130	 2298.00	 2380.05	-1462.25	 1858.56
     53.1390	 2301.00	 2380.25	-1459.44	 1858.34
     53.1650	 2246.00	 2380.45	-1514.64	 1858.11
     53.1910	 2261.00	 2380.67	-1499.86	 1857.88
     53.2170	 2314.00	 2380.89	-1447.08	 1857.65
     53.2430	 2362.00	 2381.12	-1399.31	 1857.42
     53.2690	 2334.00	 2381.37	-1427.56	 1857.20
     53.2950	 2271.00	 2381.62	-1490.81	 1856.97
     53.3210	 2216.00	 2381.88	-1546.07	 1856.74
     53.3470	 2231.00	 2382.16	-1531.35	 1856.51
     53.3730	 2283.00	 2382.45	-1479.64	 1856.29
     53.3990	 2248.00	 2382.74	-1514.93	 1856.06
     53.4250	 2210.00	 2383.05	-1553.24	 1855.82
     53.4510	 2259.00	 2382.77	-1503.96	 1855.00
     53.4770	 2260.00	 2382.50	-1502.69	 1854.17
     53.5030	 2275.00	 2382.25	-1487.44	 1853.34
     53.5290	 2308.00	 2382.01	-1454.20	 1852.51
     53.5550	 2269.00	 2381.78	-1492.97	 1851.69
     53.5810	 2255.00	 2381.57	-1506.76	 1850.86
     53.6070	 2249.00	 2381.37	-1512.56	 1850.03
     53.6330	 2257.00	 2381.19	-1504.38	 1849.20
     53.6590	 2259.00	 2381.02	-1502.21	 1848.37
     53.6850	 2224.00	 2380.87	-1537.06	 1847.55
     53.7110	 2250.00	 2380.73	-1510.92	 1846.72
     53.7370	 2295.00	 2380.61	-1465.80	 1845.89
     53.7630	 2287.00	 2380.51	-1473.70	 1845.06
     53.7890	 2277.00	 2380.42	-1483.61	 1844.24
     53.8150	 2257.00	 2380.35	-1503.54	 1843.41
     53.8410	 2270.00	 2380.30	-1490.49	 1842.58
     53.8670	 2291.00	 2380.27	-1469.46	 1841.75
     53.8930	 2221.00	 2380.26	-1539.45	 1840.92
     53.9190	 2242.00	 2380.26	-1518.46	 1840.10
     53.9450	 2321.00	 2380.29	-1439.48	 1839.27
     53.9710	 2323.00	 2380.34	-1437.53	 1838.44
     53.9970	 2290.00	 2380.41	-1470.60	 1837.61
     54.0230	 2298.00	 2380.51	-1462.70	 1836.79
     54.0490	 2296.00	 2380.63	-1464.82	 1835.96
     54.0750	 2300.00	 2380.77	-1460.96	 1835.13
     54.1010	 2214.00	 2380.93	-1547.12	 1834.30
     54.1270	 2229.00	 2381.12	-1532.31	 1833.47
     54.1530	 2273.00	 2381.34	-1488.53	 1832.65
     54.1790	 2324.00	 2381.58	-1437.77	 1831.82
     54.2050	 2289.00	 2381.86	-1473.05	 1830.99
     54.2310	 2296.00	 2382.16	-1466.35	 1830.16
     54.2570	 2335.00	 2382.49	-1427.68	 1829.34
     54.2830	 2341.00	 2382.85	-1422.04	 1828.51
     54.3090	 2291.00	 2383.24	-1472.43	 1827.68
     54.3350	 2310.00	 2383.66	-1453.85	 1826.85
     54.3610	 2306.00	 2384.12	-1458.31	 1826.03
     54.3870	 2367.00	 2384.61	-1397.80	 1825.20
     54.4130	 2369.00	 2385.14	-1396.33	 1824.37
     54.4390	 2357.00	 2385.71	-1408.90	 1823.54
     54.4650	 2299.00	 2386.31	-1467.50	 1822.71
     54.4910	 2286.00	 2386.95	-1481.14	 1821.89
     54.5170	 2391.00	 2387.64	-1376.83	 1821.06
     54.5430	 2413.00	 2388.36	-1355.55	 1820.23
     54.5690	 2318.00	 2389.13	-1451.32	 1819.40
     54.5950	 2285.00	 2389.95	-1485.14	 1818.58
     54.6210	 2333.00	 2390.80	-1438.00	 1817.75
     54.6470	 2287.00	 2391.71	-1484.90	 1816.92
     54.6730	 2398.00	 2392.67	-1374.86	 1816.09
     54.6990	 2345.00	 2393.68	-1428.87	 1815.26
     54.7250	 2428.00	 2394.74	-1346.93	 1814.44
     54.7510	 2363.00	 2395.85	-1413.04	 1813.61
     54.7770	 2356.00	 2397.02	-1421.21	 1812.78
     54.8030	 2316.00	 2398.25	-1462.44	 1811.95
     54.8290	 2350.00	 2399.54	-1429.73	 1811.13
     54.8550	 2337.00	 2400.89	-1444.08	 1810.30
     54.8810	 2329.00	 2402.31	-1453.50	 1809.47
     54.9070	 2439.00	 2403.79	-1344.98	 1808.64
     54.9330	 2373.00	 2405.34	-1412.53	 1807.81
     54.9590	 2385.00	 2406.96	-1402.15	 1806.99
     54.9850	 2418.00	 2408.65	-1370.84	 1806.16
     55.0110	 2387.00	 2410.42	-1403.61	 1805.33
     55.0370	 2461.00	 2412.27	-1331.46	 1804.50
     55.0630	 2421.00	 2414.19	-1373.38	 1803.68
     55.0890	 2356.00	 2416.20	-1440.39	 1802.85
     55.1150	 2341.00	 2418.29	-1457.48	 1802.02
     55.1410	 2384.00	 2420.47	-1416.66	 1801.19
     55.1670	 2396.00	 2422.74	-1406.93	 1800.37
     55.1930	 2444.00	 2425.10	-1361.29	 1799.54
     55.2190	 2440.00	 2427.56	-1367.75	 1798.71
     55.2450	 2377.00	 2430.12	-1433.31	 1797.88
     55.2710	 2437.00	 2432.78	-1375.97	 1797.05
     55.2970	 2398.00	 2435.54	-1417.73	 1796.23
     55.3230	 2507.00	 2438.41	-1311.60	 1795.40
     55.3490	 2476.00	 2441.38	-1345.57	 1794.57
     55.3750	 2483.00	 2444.47	-1341.66	 1793.74
     55.4010	 2455.00	 2447.67	-1372.86	 1792.92
     55.4270	 2429.00	 2450.99	-1402.18	 1792.09
     55.4530	 2381.00	 2454.43	-1453.62	 1791.26
     55.4790	 2454.00	 2457.98	-1384.18	 1790.43
     55.5050	 2473.00	 2461.67	-1368.86	 1789.60
     55.5310	 2412.00	 2465.47	-1433.66	 1788.78
     55.5570	 2442.00	 2469.40	-1407.59	 1787.95
     55.5830	 2525.00	 2473.46	-1328.65	 1787.12
     55.6090	 2508.00	 2477.65	-1349.84	 1786.29
     55.6350	 2442.00	 2481.97	-1420.16	 1785.47
     55.6610	 2459.00	 2486.42	-1407.61	 1784.64
     55.6870	 2475.00	 2490.99	-1396.18	 1783.81
     55.7130	 2496.00	 2495.69	-1379.89	 1782.98
     55.7390	 2516.00	 2500.52	-1364.71	 1782.15
     55.7650	 2534.00	 2505.48	-1351.67	 1781.33
     55.7910	 2502.00	 2510.55	-1388.74	 1780.50
     55.8170	 2453.00	 2515.74	-1442.94	 1779.67
     55.8430	 2453.00	 2521.05	-1448.24	 1778.84
     55.8690	 2532.00	 2526.46	-1374.65	 1778.02
     55.8950	 2546.00	 2531.97	-1366.16	 1777.19
     55.9210	 2510.00	 2537.57	-1407.76	 1776.36
     55.9470	 2490.00	 2543.26	-1433.45	 1775.53
     55.9730	 2545.00	 2549.01	-1384.21	 1774.71
     55.9990	 2526.00	 2554.83	-1409.02	 1773.88
     56.0250	 2520.00	 2560.69	-1420.88	 1773.05
     56.0510	 2561.00	 2566.59	-1385.78	 1772.22
     56.0770	 2567.00	 2572.50	-1385.69	 1771.39
     56.1030	 2639.00	 2578.40	-1319.59	 1770.57
     56.1290	 2612.00	 2584.29	-1352.48	 1769.74
     56.1550	 2532.00	 2590.12	-1438.31	 1768.91
     56.1810	 2549.00	 2595.90	-1427.09	 1768.08
     56.2070	 2591.00	 2601.58	-1390.77	 1767.26
     56.2330	 2593.00	 2607.14	-1394.33	 1766.43
     56.2590	 2533.00	 2612.56	-1459.75	 1765.60
     56.2850	 2584.00	 2617.71	-1413.90	 1764.77
     56.3110	 2689.00	 2622.76	-1313.95	 1763.94
     56.3370	 2702.00	 2627.58	-1305.78	 1763.12
     56.3630	 2678.00	 2632.15	-1334.34	 1762.29
     56.3890	 2673.00	 2636.38	-1343.57	 1761.46
     56.4150	 2675.00	 2640.35	-1345.54	 1760.63
     56.4410	 2651.00	 2643.97	-1373.16	 1759.81
     56.4670	 2661.00	 2647.23	-1366.42	 1758.98
     56.4930	 2624.00	 2650.09	-1406.28	 1758.15
     56.5190	 2557.00	 2652.53	-1475.72	 1757.32
     56.5450	 2550.00	 2654.53	-1484.72	 1756.49
     56.5710	 2588.00	 2656.07	-1448.26	 1755.67
     56.5970	 2627.00	 2657.14	-1410.33	 1754.84
     56.6230	 2693.00	 2657.72	-1344.91	 1754.01
     56.6490	 2633.00	 2657.81	-1405.00	 1753.18
     56.6750	 2618.00	 2657.39	-1419.58	 1752.36
     56.7010	 2653.00	 2656.47	-1383.66	 1751.53
     56.7270	 2643.00	 2655.04	-1392.23	 1750.70
     56.7530	 2673.00	 2653.11	-1360.30	 1749.87
     56.7790	 2665.00	 2650.69	-1365.88	 1749.05
     56.8050	 2644.00	 2647.80	-1383.99	 1748.22
     56.8310	 2602.00	 2644.43	-1422.62	 1747.39
     56.8570	 2594.00	 2640.62	-1426.82	 1746.56
     56.8830	 2659.00	 2636.39	-1357.58	 1745.73
     56.9090	 2754.00	 2631.75	-1257.94	 1744.91
     56.9350	 2690.00	 2626.73	-1316.92	 1744.08
     56.9610	 2625.00	 2621.36	-1376.55	 1743.25
     56.9870	 2607.00	 2615.67	-1388.86	 1742.42
     57.0130	 2576.00	 2609.67	-1413.86	 1741.60
     57.0390	 2668.00	 2603.41	-1315.60	 1740.77
     57.0650	 2671.00	 2596.91	-1306.10	 1739.94
     57.0910	 2632.00	 2590.20	-1338.39	 1739.11
     57.1170	 2673.00	 2583.30	-1290.50	 1738.28
     57.1430	 2640.00	 2576.26	-1316.45	 1737.46
     57.1690	 2708.00	 2569.08	-1241.27	 1736.63
     57.1950	 2612.00	 2561.81	-1330.00	 1735.80
     57.2210	 2651.00	 2554.45	-1283.64	 1734.97
     57.2470	 2706.00	 2547.05	-1221.24	 1734.15
     57.2730	 2727.00	 2539.61	-1192.80	 1733.32
     57.2990	 2663.00	 2532.16	-1249.35	 1732.49
     57.3250	 2657.00	 2524.72	-1247.91	 1731.66
     57.3510	 2625.00	 2517.30	-1272.49	 1730.83
     57.3770	 2583.00	 2509.92	-1307.11	 1730.01
     57.4030	 2603.00	 2502.60	-1279.79	 1729.18
     57.4290	 2626.00	 2495.34	-1249.53	 1728.35
     57.4550	 2557.00	 2488.16	-1311.35	 1727.52
     57.4810	 2672.00	 2481.07	-1189.26	 1726.70
     57.5070	 2512.00	 2474.07	-1342.26	 1725.87
     57.5330	 2541.00	 2467.18	-1306.37	 1725.04
     57.5590	 2593.00	 2460.40	-1247.59	 1724.21
     57.5850	 2625.00	 2453.74	-1208.93	 1723.39
     57.6110	 2579.00	 2447.20	-1248.39	 1722.56
     57.6370	 2585.00	 2440.77	-1235.97	 1721.73
     57.6630	 2544.00	 2434.48	-1270.67	 1720.90
     57.6890	 2645.00	 2428.31	-1163.50	 1720.07
     57.7150	 2554.00	 2422.28	-1248.47	 1719.25
     57.7410	 2639.00	 2416.37	-1157.56	 1718.42
     57.7670	 2568.00	 2410.59	-1222.79	 1717.59
     57.7930	 2661.00	 2404.95	-1124.14	 1716.76
     57.8190	 2616.00	 2399.43	-1163.62	 1715.94
     57.8450	 2652.00	 2394.04	-1122.23	 1715.11
     57.8710	 2487.00	 2388.78	-1281.97	 1714.28
     57.8970	 2489.00	 2383.65	-1274.84	 1713.45
     57.9230	 2509.00	 2378.63	-1249.82	 1712.62
     57.9490	 2534.00	 2373.74	-1219.93	 1711.80
     57.9750	 2511.00	 2368.97	-1238.16	 1710.97
     58.0010	 2477.00	 2364.31	-1267.51	 1710.14
     58.0270	 2485.00	 2359.77	-1254.96	 1709.31
     58.0530	 2510.00	 2355.35	-1225.54	 1708.49
     58.0790	 2419.00	 2351.03	-1312.22	 1707.66
     58.1050	 2528.00	 2346.82	-1199.01	 1706.83
     58.1310	 2548.00	 2342.71	-1174.90	 1706.00
     58.1570	 2500.00	 2338.70	-1218.89	 1705.17
     58.1830	 2438.00	 2334.80	-1276.99	 1704.35
     58.2090	 2412.00	 2330.99	-1299.18	 1703.52
     58.2350	 2433.00	 2327.27	-1274.46	 1702.69
     58.2610	 2431.00	 2323.65	-1272.84	 1701.86
     58.2870	 2453.00	 2320.11	-1247.30	 1701.04
     58.3130	 2408.00	 2316.66	-1288.85	 1700.21
     58.3390	 2464.00	 2313.29	-1229.48	 1699.38
     58.3650	 2414.00	 2310.01	-1276.20	 1698.55
     58.3910	 2395.00	 2306.80	-1292.00	 1697.73
     58.4170	 2427.00	 2303.68	-1256.87	 1696.90
     58.4430	 2409.00	 2300.62	-1271.81	 1696.07
     58.4690	 2403.00	 2297.64	-1274.83	 1695.24
     58.4950	 2349.00	 2294.73	-1325.92	 1694.41
     58.5210	 2298.00	 2291.89	-1374.08	 1693.59
     58.5470	 2349.00	 2289.12	-1320.31	 1692.76
     58.5730	 2402.00	 2286.41	-1264.60	 1691.93
     58.5990	 2395.00	 2283.76	-1268.95	 1691.10
     58.6250	 2362.00	 2281.17	-1299.36	 1690.28
     58.6510	 2293.00	 2278.65	-1365.84	 1689.45
     58.6770	 2298.00	 2276.18	-1358.37	 1688.62
     58.7030	 2360.00	 2273.77	-1293.96	 1687.79
     58.7290	 2354.00	 2271.41	-1297.60	 1686.96
     58.7550	 2324.00	 2269.10	-1325.29	 1686.14
     58.7810	 2317.00	 2266.85	-1330.04	 1685.31
     58.8070	 2352.00	 2264.65	-1292.84	 1684.48
     58.8330	 2337.00	 2262.49	-1305.68	 1683.65
     58.8590	 2289.00	 2260.39	-1351.58	 1682.83
     58.8850	 2271.00	 2258.33	-1367.52	 1682.00
     58.9110	 2292.00	 2256.32	-1344.51	 1681.17
     58.9370	 2331.00	 2254.35	-1303.54	 1680.34
     58.9630	 2326.00	 2252.42	-1306.61	 1679.51
     58.9890	 2346.00	 2250.54	-1284.73	 1678.69
     59.0150	 2288.00	 2248.70	-1340.89	 1677.86
     59.0410	 2300.00	 2246.90	-1327.09	 1677.03
     59.0670	 2283.00	 2245.13	-1342.32	 1676.20
     59.0930	 2277.00	 2243.41	-1346.60	 1675.38
     59.1190	 2249.00	 2241.73	-1372.92	 1674.55
     59.1450	 2235.00	 2240.08	-1385.27	 1673.72
     59.1710	 2137.00	 2238.47	-1481.66	 1672.89
     59.1970	 2176.00	 2236.90	-1441.09	 1672.06
     59.2230	 2277.00	 2235.36	-1338.55	 1671.24
     59.2490	 2281.00	 2233.86	-1333.05	 1670.41
     59.2750	 2222.00	 2232.39	-1390.58	 1669.58
     59.3010	 2194.00	 2230.96	-1417.15	 1668.75
     59.3270	 2181.00	 2229.56	-1428.75	 1667.93
     59.3530	 2253.00	 2228.19	-1355.38	 1667.10
     59.3790	 2324.00	 2226.86	-1283.05	 1666.27
     59.4050	 2175.00	 2225.56	-1430.75	 1665.44
     59.4310	 2241.00	 2224.29	-1363.48	 1664.62
     59.4570	 2188.00	 2223.05	-1415.24	 1663.79
     59.4830	 2213.00	 2221.85	-1389.04	 1662.96
     59.5090	 2190.00	 2220.68	-1410.87	 1662.13
     59.5350	 2175.00	 2219.53	-1424.73	 1661.30
     59.5610	 2165.00	 2218.43	-1433.62	 1660.48
     59.5870	 2242.00	 2217.35	-1355.54	 1659.65
     59.6130	 2224.00	 2216.30	-1372.49	 1658.82
     59.6390	 2172.00	 2215.29	-1423.48	 1657.99
     59.6650	 2215.00	 2214.31	-1379.50	 1657.17
     59.6910	 2242.00	 2213.36	-1351.55	 1656.34
     59.7170	 2200.00	 2212.44	-1392.63	 1655.51
     59.7430	 2169.00	 2211.55	-1422.74	 1654.68
     59.7690	 2178.00	 2210.70	-1412.89	 1653.85
     59.7950	 2153.00	 2209.88	-1437.07	 1653.03
     59.8210	 2142.00	 2209.09	-1447.28	 1652.20
     59.8470	 2135.00	 2208.34	-1453.53	 1651.37
     59.8730	 2097.00	 2207.62	-1490.81	 1650.54
     59.8990	 2144.00	 2206.93	-1443.12	 1649.72
     59.9250	 2126.00	 2206.28	-1460.47	 1648.89
     59.9510	 2186.00	 2205.67	-1399.86	 1648.06
     59.9770	 2117.00	 2205.09	-1468.28	 1647.23
     60.0030	 2189.00	 2204.55	-1395.74	 1646.40
     60.0290	 2247.00	 2204.05	-1337.24	 1645.58
     60.0550	 2223.00	 2203.59	-1360.78	 1644.75
     60.0810	 2156.00	 2203.17	-1427.36	 1643.92
     60.1070	 2148.00	 2202.79	-1434.98	 1643.09
     60.1330	 2158.00	 2202.45	-1424.64	 1642.27
     60.1590	 2129.00	 2202.15	-1453.34	 1641.44
     60.1850	 2118.00	 2201.90	-1464.09	 1640.61
     60.2110	 2172.00	 2201.69	-1409.89	 1639.78
     60.2370	 2143.00	 2201.54	-1438.73	 1638.96
     60.2630	 2177.00	 2201.43	-1404.62	 1638.13
     60.2890	 2204.00	 2201.37	-1377.56	 1637.30
     60.3150	 2180.00	 2201.37	-1401.56	 1636.47
     60.3410	 2173.00	 2201.42	-1408.61	 1635.64
     60.3670	 2128.00	 2201.53	-1453.72	 1634.82
     60.3930	 2118.00	 2201.70	-1463.89	 1633.99
     60.4190	 2174.00	 2201.93	-1408.12	 1633.16
     60.4450	 2145.00	 2202.22	-1437.41	 1632.33
     60.4710	 2112.00	 2202.58	-1470.78	 1631.51
     60.4970	 2185.00	 2203.02	-1398.21	 1630.68
     60.5230	 2174.00	 2203.52	-1409.71	 1629.85
     60.5490	 2154.00	 2204.26	-1430.45	 1629.17
     60.5750	 2152.00	 2205.28	-1433.48	 1628.71
     60.6010	 2141.00	 2206.40	-1445.59	 1628.24
     60.6270	 2153.00	 2207.60	-1434.79	 1627.78
     60.6530	 2130.00	 2208.90	-1459.09	 1627.31
     60.6790	 2134.00	 2210.29	-1456.48	 1626.85
     60.7050	 2151.00	 2211.79	-1440.98	 1626.38
     60.7310	 2126.00	 2213.40	-1467.59	 1625.92
     60.7570	 2181.00	 2215.13	-1414.32	 1625.45
     60.7830	 2192.00	 2216.98	-1405.17	 1624.99
     60.8090	 2171.00	 2218.96	-1428.15	 1624.52
     60.8350	 2164.00	 2221.08	-1437.27	 1624.06
     60.8610	 2164.00	 2223.35	-1439.54	 1623.59
     60.8870	 2148.00	 2225.77	-1457.96	 1623.13
     60.9130	 2152.00	 2228.36	-1456.55	 1622.66
     60.9390	 2188.00	 2231.13	-1423.32	 1622.20
     60.9650	 2153.00	 2234.09	-1461.28	 1621.74
     60.9910	 2151.00	 2237.24	-1466.44	 1621.27
     61.0170	 2114.00	 2240.62	-1506.81	 1620.81
     61.0430	 2095.00	 2244.22	-1529.41	 1620.34
     61.0690	 2143.00	 2248.08	-1485.27	 1619.88
     61.0950	 2168.00	 2252.20	-1464.39	 1619.41
     61.1210	 2169.00	 2256.60	-1467.79	 1618.95
     61.1470	 2201.00	 2261.31	-1440.50	 1618.48
     61.1730	 2193.00	 2266.35	-1453.54	 1618.02
     61.1990	 2150.00	 2271.75	-1501.94	 1617.55
     61.2250	 2165.00	 2277.54	-1492.73	 1617.09
     61.2510	 2128.00	 2283.74	-1535.93	 1616.62
     61.2770	 2146.00	 2290.39	-1524.58	 1616.16
     61.3030	 2197.00	 2297.54	-1480.73	 1615.69
     61.3290	 2205.00	 2305.21	-1480.40	 1615.23
     61.3550	 2170.00	 2313.47	-1523.66	 1614.76
     61.3810	 2164.00	 2322.36	-1538.55	 1614.30
     61.4070	 2234.00	 2331.94	-1478.13	 1613.83
     61.4330	 2295.00	 2342.27	-1427.46	 1613.37
     61.4590	 2315.00	 2353.42	-1418.61	 1612.90
     61.4850	 2258.00	 2365.47	-1487.66	 1612.44
     61.5110	 2305.00	 2378.52	-1453.71	 1611.97
     61.5370	 2394.00	 2392.65	-1378.84	 1611.51
     61.5630	 2386.00	 2407.96	-1402.15	 1611.05
     61.5890	 2406.00	 2424.59	-1398.78	 1610.58
     61.6150	 2460.00	 2442.66	-1362.85	 1610.12
     61.6410	 2490.00	 2462.30	-1352.49	 1609.65
     61.6670	 2505.00	 2483.69	-1358.88	 1609.19
     61.6930	 2578.00	 2506.99	-1309.18	 1608.72
     61.7190	 2629.00	 2532.39	-1283.58	 1608.26
     61.7450	 2617.00	 2560.09	-1323.28	 1607.79
     61.7710	 2631.00	 2590.31	-1339.50	 1607.33
     61.7970	 2715.00	 2623.29	-1288.48	 1606.86
     61.8230	 2773.00	 2659.26	-1266.45	 1606.40
     61.8490	 2835.00	 2698.47	-1243.66	 1605.93
     61.8750	 2878.00	 2741.16	-1243.35	 1605.47
     61.9010	 2954.00	 2787.56	-1213.75	 1605.00
     61.9270	 2967.00	 2837.86	-1251.05	 1604.54
     61.9530	 2922.00	 2892.20	-1350.39	 1604.07
     61.9790	 3024.00	 2950.62	-1306.81	 1603.61
     62.0050	 3067.00	 3013.07	-1326.26	 1603.14
     62.0310	 3188.00	 3079.28	-1271.47	 1602.68
     62.0570	 3209.00	 3148.78	-1319.97	 1602.21
     62.0830	 3202.00	 3220.81	-1399.00	 1601.75
     62.1090	 3275.00	 3294.31	-1399.50	 1601.28
     62.1350	 3311.00	 3367.84	-1437.03	 1600.82
     62.1610	 3414.00	 3439.60	-1405.79	 1600.36
     62.1870	 3408.00	 3507.56	-1479.75	 1599.89
     62.2130	 3491.00	 3569.47	-1458.66	 1599.43
     62.2390	 3614.00	 3623.09	-1389.28	 1598.96
     62.2650	 3585.00	 3666.37	-1461.56	 1598.50
     62.2910	 3542.00	 3697.69	-1535.88	 1598.03
     62.3170	 3528.00	 3715.95	-1568.14	 1597.57
     62.3430	 3635.00	 3720.67	-1465.86	 1597.10
     62.3690	 3638.00	 3711.98	-1454.17	 1596.64
     62.3950	 3628.00	 3690.50	-1442.69	 1596.17
     62.4210	 3615.00	 3657.28	-1422.47	 1595.71
     62.4470	 3656.00	 3613.64	-1337.83	 1595.24
     62.4730	 3608.00	 3561.13	-1333.32	 1594.78
     62.4990	 3543.00	 3501.38	-1338.57	 1594.31
     62.5250	 3485.00	 3436.13	-1331.32	 1593.85
     62.5510	 3515.00	 3366.53	-1231.72	 1593.38
     62.5770	 3455.00	 3295.41	-1220.60	 1592.92
     62.6030	 3441.00	 3223.69	-1162.88	 1592.45
     62.6290	 3248.00	 3152.68	-1284.87	 1591.99
     62.6550	 3177.00	 3083.47	-1286.66	 1591.52
     62.6810	 3172.00	 3016.60	-1224.79	 1591.06
     62.7070	 3129.00	 2953.22	-1204.41	 1590.60
     62.7330	 2992.00	 2893.42	-1281.61	 1590.13
     62.7590	 3003.00	 2837.39	-1214.58	 1589.67
     62.7850	 2998.00	 2785.19	-1167.38	 1589.20
     62.8110	 2856.00	 2736.76	-1260.95	 1588.74
     62.8370	 2803.00	 2691.97	-1269.16	 1588.27
     62.8630	 2722.00	 2650.64	-1308.83	 1587.81
     62.8890	 2695.00	 2612.57	-1297.76	 1587.34
     62.9150	 2654.00	 2577.52	-1303.71	 1586.88
     62.9410	 2638.00	 2545.27	-1287.46	 1586.41
     62.9670	 2578.00	 2515.60	-1317.79	 1585.95
     62.9930	 2412.00	 2488.30	-1456.49	 1585.48
     63.0190	 2438.00	 2463.16	-1405.35	 1585.02
     63.0450	 2445.00	 2439.99	-1375.18	 1584.55
     63.0710	 2387.00	 2418.61	-1411.80	 1584.09
     63.0970	 2408.00	 2398.88	-1371.07	 1583.62
     63.1230	 2397.00	 2380.62	-1363.81	 1583.16
     63.1490	 2335.00	 2363.73	-1408.92	 1582.69
     63.1750	 2295.00	 2348.07	-1433.26	 1582.23
     63.2010	 2232.00	 2333.53	-1481.72	 1581.76
     63.2270	 2309.00	 2320.01	-1391.20	 1581.30
     63.2530	 2271.00	 2307.43	-1416.62	 1580.83
     63.2790	 2277.00	 2295.70	-1398.89	 1580.37
     63.3050	 2298.00	 2284.74	-1366.93	 1579.91
     63.3310	 2301.00	 2274.50	-1353.69	 1579.44
     63.3570	 2315.00	 2264.91	-1330.10	 1578.98
     63.3830	 2273.00	 2255.92	-1363.11	 1578.51
     63.4090	 2264.00	 2247.48	-1363.67	 1578.05
     63.4350	 2231.00	 2239.54	-1388.74	 1577.58
     63.4610	 2275.00	 2232.07	-1337.26	 1577.12
     63.4870	 2276.00	 2225.03	-1329.22	 1576.65
     63.5130	 2237.00	 2218.39	-1361.58	 1576.19
     63.5390	 2269.00	 2212.11	-1323.30	 1575.72
     63.5650	 2259.00	 2206.17	-1327.36	 1575.26
     63.5910	 2256.00	 2200.55	-1324.74	 1574.79
     63.6170	 2291.00	 2195.21	-1284.40	 1574.33
     63.6430	 2293.00	 2190.15	-1277.34	 1573.86
     63.6690	 2222.00	 2185.34	-1343.53	 1573.40
     63.6950	 2215.00	 2180.77	-1345.96	 1572.93
     63.7210	 2264.00	 2176.42	-1292.61	 1572.47
     63.7470	 2235.00	 2172.27	-1317.46	 1572.00
     63.7730	 2165.00	 2168.32	-1383.51	 1571.54
     63.7990	 2105.00	 2164.54	-1439.73	 1571.07
     63.8250	 2136.00	 2160.94	-1405.13	 1570.61
     63.8510	 2210.00	 2157.49	-1327.68	 1570.14
     63.8770	 2201.00	 2154.19	-1333.38	 1569.68
     63.9030	 2164.00	 2151.03	-1367.22	 1569.22
     63.9290	 2131.00	 2148.01	-1397.20	 1568.75
     63.9550	 2125.00	 2145.10	-1400.29	 1568.29
     63.9810	 2145.00	 2142.32	-1377.51	 1567.82
     64.0070	 2184.00	 2139.64	-1335.83	 1567.36
     64.0330	 2228.00	 2137.07	-1289.26	 1566.89
     64.0590	 2218.00	 2134.60	-1296.79	 1566.43
     64.0850	 2228.00	 2132.23	-1284.42	 1565.96
     64.1110	 2252.00	 2129.94	-1258.13	 1565.50
     64.1370	 2165.00	 2127.74	-1342.93	 1565.03
     64.1630	 2115.00	 2125.61	-1390.80	 1564.57
     64.1890	 2176.00	 2123.57	-1327.76	 1564.10
     64.2150	 2184.00	 2121.59	-1317.79	 1563.64
     64.2410	 2190.00	 2119.69	-1309.88	 1563.17
     64.2670	 2159.00	 2117.85	-1339.04	 1562.71
     64.2930	 2147.00	 2116.08	-1349.27	 1562.24
     64.3190	 2181.00	 2114.37	-1313.56	 1561.78
     64.3450	 2131.00	 2112.71	-1361.90	 1561.31
     64.3710	 2142.00	 2111.11	-1349.30	 1560.85
     64.3970	 2131.00	 2109.57	-1358.76	 1560.38
     64.4230	 2137.00	 2108.07	-1351.26	 1559.92
     64.4490	 2152.00	 2106.62	-1334.82	 1559.45
     64.4750	 2116.00	 2105.23	-1369.42	 1558.99
     64.5010	 2097.00	 2103.87	-1387.06	 1558.53
     64.5270	 2160.00	 2102.57	-1322.76	 1558.06
     64.5530	 2178.00	 2101.30	-1303.49	 1557.60
     64.5790	 2139.00	 2100.07	-1341.26	 1557.13
     64.6050	 2180.00	 2098.89	-1299.08	 1556.67
     64.6310	 2183.00	 2097.74	-1294.93	 1556.20
     64.6570	 2137.00	 2096.63	-1339.82	 1555.74
     64.6830	 2130.00	 2095.56	-1345.75	 1555.27
     64.7090	 2088.00	 2094.52	-1386.72	 1554.81
     64.7350	 2094.00	 2093.52	-1379.71	 1554.34
     64.7610	 2130.00	 2092.55	-1342.74	 1553.88
     64.7870	 2066.00	 2091.62	-1405.81	 1553.41
     64.8130	 2131.00	 2090.71	-1339.90	 1552.95
     64.8390	 2100.00	 2089.84	-1370.03	 1552.48
     64.8650	 2050.00	 2089.00	-1419.19	 1552.02
     64.8910	 2070.00	 2088.19	-1398.38	 1551.55
     64.9170	 2092.00	 2087.41	-1375.60	 1551.09
     64.9430	 2041.00	 2086.65	-1425.84	 1550.62
     64.9690	 2099.00	 2085.93	-1367.12	 1550.16
     64.9950	 2081.00	 2085.23	-1384.42	 1549.69
     65.0210	 2006.00	 2084.56	-1458.76	 1549.23
     65.0470	 2015.00	 2083.92	-1449.11	 1548.76
     65.0730	 2072.00	 2083.31	-1391.50	 1548.30
     65.0990	 2056.00	 2082.72	-1406.91	 1547.84
     65.1250	 2024.00	 2082.16	-1438.35	 1547.37
     65.1510	 2077.00	 2081.63	-1384.82	 1546.91
     65.1770	 2039.00	 2081.12	-1422.31	 1546.44
     65.2030	 2092.00	 2080.64	-1368.83	 1545.98
     65.2290	 1991.00	 2080.18	-1469.37	 1545.51
     65.2550	 2017.00	 2079.75	-1442.94	 1545.05
     65.2810	 2081.00	 2079.34	-1378.53	 1544.58
     65.3070	 2094.00	 2078.96	-1365.15	 1544.12
     65.3330	 2063.00	 2078.60	-1395.79	 1543.65
     65.3590	 2019.00	 2078.26	-1439.45	 1543.19
     65.3850	 1986.00	 2077.95	-1472.14	 1542.72
     65.4110	 2054.00	 2077.67	-1403.86	 1542.26
     65.4370	 2121.00	 2077.40	-1336.59	 1541.79
     65.4630	 2136.00	 2077.16	-1321.35	 1541.33
     65.4890	 2069.00	 2076.94	-1388.13	 1540.86
     65.5150	 2060.00	 2076.74	-1396.93	 1540.40
     65.5410	 2068.00	 2076.56	-1388.75	 1539.93
     65.5670	 2081.00	 2076.41	-1375.60	 1539.47
     65.5930	 2062.00	 2076.27	-1394.46	 1539.00
     65.6190	 2131.00	 2076.15	-1325.34	 1538.54
     65.6450	 2017.00	 2076.05	-1439.24	 1538.07
     65.6710	 2088.00	 2075.97	-1368.16	 1537.61
     65.6970	 1983.00	 2075.90	-1473.09	 1537.15
     65.7230	 1967.00	 2075.85	-1489.04	 1536.68
     65.7490	 2004.00	 2075.81	-1452.01	 1536.22
     65.7750	 2035.00	 2075.79	-1420.98	 1535.75
     65.8010	 2019.00	 2075.78	-1436.97	 1535.29
     65.8270	 2017.00	 2075.77	-1438.96	 1534.82
     65.8530	 2026.00	 2075.77	-1429.96	 1534.36
     65.8790	 2047.00	 2075.78	-1408.97	 1533.89
     65.9050	 2023.00	 2075.79	-1432.98	 1533.43
     65.9310	 1956.00	 2075.80	-1500.00	 1532.96
     65.9570	 2011.00	 2075.82	-1445.01	 1532.50
     65.9830	 2028.00	 2075.83	-1428.02	 1532.03
     66.0090	 2008.00	 2075.83	-1448.02	 1531.57
     66.0350	 1945.00	 2075.82	-1511.01	 1531.10
     66.0610	 2032.00	 2075.81	-1424.00	 1530.64
     66.0870	 2017.00	 2075.78	-1438.97	 1530.17
     66.1130	 2054.00	 2075.73	-1401.92	 1529.71
     66.1390	 2038.00	 2075.80	-1417.99	 1529.38
     66.1650	 2101.00	 2075.98	-1355.17	 1529.18
     66.1910	 2100.00	 2076.13	-1356.32	 1528.97
     66.2170	 2038.00	 2076.25	-1418.44	 1528.77
     66.2430	 2085.00	 2076.35	-1371.54	 1528.57
     66.2690	 2094.00	 2076.41	-1362.60	 1528.37
     66.2950	 2086.00	 2076.44	-1370.63	 1528.17
     66.3210	 2032.00	 2076.43	-1424.62	 1527.97
     66.3470	 2039.00	 2076.38	-1417.57	 1527.77
     66.3730	 2072.00	 2076.29	-1384.48	 1527.57
     66.3990	 2115.00	 2076.16	-1341.35	 1527.37
     66.4250	 2097.00	 2075.99	-1359.18	 1527.17
     66.4510	 2064.00	 2075.77	-1391.96	 1526.97
     66.4770	 2073.00	 2075.51	-1382.70	 1526.77
     66.5030	 2049.00	 2075.20	-1406.39	 1526.57
     66.5290	 2028.00	 2074.85	-1427.04	 1526.37
     66.5550	 2059.00	 2074.46	-1395.65	 1526.17
     66.5810	 2080.00	 2074.02	-1374.21	 1525.96
     66.6070	 2068.00	 2073.54	-1385.73	 1525.76
     66.6330	 2060.00	 2073.02	-1393.21	 1525.56
     66.6590	 2050.00	 2072.46	-1402.65	 1525.36
     66.6850	 2081.00	 2071.86	-1371.05	 1525.16
     66.7110	 2099.00	 2071.23	-1352.42	 1524.96
     66.7370	 2065.00	 2070.57	-1385.76	 1524.76
     66.7630	 2094.00	 2069.87	-1356.06	 1524.56
     66.7890	 2114.00	 2069.14	-1335.33	 1524.36
     66.8150	 2107.00	 2068.39	-1341.58	 1524.16
     66.8410	 2129.00	 2067.61	-1318.80	 1523.96
     66.8670	 2109.00	 2066.82	-1338.01	 1523.76
     66.8930	 2047.00	 2066.00	-1399.19	 1523.56
     66.9190	 2075.00	 2065.17	-1370.36	 1523.36
     66.9450	 2089.00	 2064.33	-1355.52	 1523.15
     66.9710	 2106.00	 2063.47	-1337.67	 1522.95
     66.9970	 2075.00	 2062.61	-1367.80	 1522.75
     67.0230	 2105.00	 2061.75	-1336.94	 1522.55
     67.0490	 2056.00	 2060.88	-1385.07	 1522.35
     67.0750	 2028.00	 2060.00	-1412.19	 1522.15
     67.1010	 2078.00	 2059.13	-1361.32	 1521.95
     67.1270	 2059.00	 2058.27	-1379.46	 1521.75
     67.1530	 2039.00	 2057.40	-1398.59	 1521.55
     67.1790	 2053.00	 2056.55	-1383.74	 1521.35
     67.2050	 2043.00	 2055.70	-1392.89	 1521.15
     67.2310	 2039.00	 2054.86	-1396.05	 1520.95
     67.2570	 2024.00	 2054.03	-1410.22	 1520.75
     67.2830	 2080.00	 2053.21	-1353.40	 1520.55
     67.3090	 2055.00	 2052.40	-1377.59	 1520.34
     67.3350	 2038.00	 2051.61	-1393.80	 1520.14
     67.3610	 2009.00	 2050.83	-1422.03	 1519.94
     67.3870	 2089.00	 2050.07	-1341.26	 1519.74
     67.4130	 2168.00	 2049.33	-1261.52	 1519.54
     67.4390	 2073.00	 2048.60	-1355.79	 1519.34
     67.4650	 2082.00	 2047.88	-1346.07	 1519.14
     67.4910	 2150.00	 2047.18	-1277.38	 1518.94
     67.5170	 2067.00	 2046.51	-1359.70	 1518.74
     67.5430	 2002.00	 2045.84	-1424.03	 1518.54
     67.5690	 2064.00	 2045.20	-1361.39	 1518.34
     67.5950	 2069.00	 2044.57	-1355.76	 1518.14
     67.6210	 2032.00	 2043.97	-1392.16	 1517.94
     67.6470	 2070.00	 2043.38	-1353.57	 1517.74
     67.6730	 2074.00	 2042.80	-1348.99	 1517.53
     67.6990	 2022.00	 2042.25	-1400.44	 1517.33
     67.7250	 1967.00	 2041.72	-1454.91	 1517.13
     67.7510	 2068.00	 2041.20	-1353.39	 1516.93
     67.7770	 2038.00	 2040.70	-1382.89	 1516.73
     67.8030	 2140.00	 2040.22	-1280.41	 1516.53
     67.8290	 2171.00	 2039.76	-1248.95	 1516.33
     67.8550	 2040.00	 2039.31	-1379.50	 1516.13
     67.8810	 2080.00	 2038.88	-1339.07	 1515.93
     67.9070	 2157.00	 2038.47	-1261.66	 1515.73
     67.9330	 2084.00	 2038.08	-1334.27	 1515.53
     67.9590	 2123.00	 2037.71	-1294.90	 1515.33
     67.9850	 2014.00	 2037.35	-1403.54	 1515.13
     68.0110	 2036.00	 2037.01	-1381.20	 1514.93
     68.0370	 2065.00	 2036.69	-1351.88	 1514.72
     68.0630	 1999.00	 2036.38	-1417.57	 1514.52
     68.0890	 2019.00	 2036.10	-1397.29	 1514.32
     68.1150	 2060.00	 2035.82	-1356.02	 1514.12
     68.1410	 2082.00	 2035.57	-1333.76	 1513.92
     68.1670	 2091.00	 2035.33	-1324.52	 1513.72
     68.1930	 2156.00	 2035.11	-1259.31	 1513.52
     68.2190	 2100.00	 2034.91	-1315.10	 1513.32
     68.2450	 2073.00	 2034.73	-1341.92	 1513.12
     68.2710	 2083.00	 2034.56	-1331.75	 1512.92
     68.2970	 2075.00	 2034.41	-1339.60	 1512.72
     68.3230	 2053.00	 2034.27	-1361.46	 1512.52
     68.3490	 2047.00	 2034.16	-1367.35	 1512.32
     68.3750	 2137.00	 2034.06	-1277.25	 1512.12
     68.4010	 2112.00	 2033.97	-1302.16	 1511.91
     68.4270	 2051.00	 2033.91	-1363.10	 1511.71
     68.4530	 2101.00	 2033.86	-1313.05	 1511.51
     68.4790	 2071.00	 2033.83	-1343.02	 1511.31
     68.5050	 2040.00	 2033.82	-1374.01	 1511.11
     68.5310	 2035.00	 2033.82	-1379.01	 1510.91
     68.5570	 2075.00	 2033.85	-1339.04	 1510.71
     68.5830	 2082.00	 2033.89	-1332.08	 1510.51
     68.6090	 2080.00	 2033.95	-1334.14	 1510.31
     68.6350	 2089.00	 2034.03	-1325.22	 1510.11
     68.6610	 2071.00	 2034.13	-1343.32	 1509.91
     68.6870	 2028.00	 2034.25	-1386.44	 1509.71
     68.7130	 2052.00	 2034.38	-1362.57	 1509.51
     68.7390	 2064.00	 2034.54	-1350.73	 1509.31
     68.7650	 2064.00	 2034.72	-1350.91	 1509.11
     68.7910	 2107.00	 2034.92	-1308.11	 1508.90
     68.8170	 2001.00	 2035.13	-1414.32	 1508.70
     68.8430	 2045.00	 2035.37	-1370.56	 1508.50
     68.8690	 2085.00	 2035.63	-1330.82	 1508.30
     68.8950	 2012.00	 2035.92	-1404.11	 1508.10
     68.9210	 2028.00	 2036.22	-1388.41	 1507.90
     68.9470	 2104.00	 2036.55	-1312.74	 1507.70
     68.9730	 2111.00	 2036.90	-1306.09	 1507.50
     68.9990	 2075.00	 2037.27	-1342.46	 1507.30
     69.0250	 2031.00	 2037.67	-1386.86	 1507.10
     69.0510	 2028.00	 2038.09	-1390.28	 1506.90
     69.0770	 2093.00	 2038.54	-1325.73	 1506.70
     69.1030	 2111.00	 2039.01	-1308.20	 1506.50
     69.1290	 2096.00	 2039.50	-1323.69	 1506.30
     69.1550	 2122.00	 2040.03	-1298.22	 1506.09
     69.1810	 2113.00	 2040.57	-1307.77	 1505.89
     69.2070	 2083.00	 2041.16	-1338.35	 1505.70
     69.2330	 2121.00	 2041.79	-1300.98	 1505.53
     69.2590	 2079.00	 2042.44	-1343.63	 1505.35
     69.2850	 2010.00	 2043.12	-1413.31	 1505.17
     69.3110	 2033.00	 2043.82	-1391.01	 1504.99
     69.3370	 2040.00	 2044.56	-1384.75	 1504.81
     69.3630	 2027.00	 2045.32	-1398.51	 1504.63
     69.3890	 2046.00	 2046.12	-1380.31	 1504.45
     69.4150	 2104.00	 2046.94	-1323.13	 1504.27
     69.4410	 2079.00	 2047.79	-1348.98	 1504.10
     69.4670	 2067.00	 2048.67	-1361.86	 1503.92
     69.4930	 2077.00	 2049.58	-1352.77	 1503.74
     69.5190	 2093.00	 2050.52	-1337.71	 1503.56
     69.5450	 2114.00	 2051.48	-1317.68	 1503.38
     69.5710	 2077.00	 2052.48	-1355.67	 1503.20
     69.5970	 2067.00	 2053.50	-1366.69	 1503.02
     69.6230	 2148.00	 2054.55	-1286.74	 1502.84
     69.6490	 2026.00	 2055.63	-1409.82	 1502.67
     69.6750	 2018.00	 2056.73	-1418.92	 1502.49
     69.7010	 2081.00	 2057.86	-1357.05	 1502.31
     69.7270	 2053.00	 2059.00	-1386.20	 1502.13
     69.7530	 2019.00	 2060.18	-1421.37	 1501.95
     69.7790	 2015.00	 2061.37	-1426.56	 1501.77
     69.8050	 2046.00	 2062.58	-1396.77	 1501.59
     69.8310	 2127.00	 2063.80	-1316.99	 1501.42
     69.8570	 2083.00	 2065.04	-1362.23	 1501.24
     69.8830	 2047.00	 2066.29	-1399.48	 1501.06
     69.9090	 2067.00	 2067.55	-1380.74	 1500.88
     69.9350	 2065.00	 2068.81	-1384.00	 1500.70
     69.9610	 2039.00	 2070.07	-1411.27	 1500.52
     69.9870	 2065.00	 2071.34	-1386.53	 1500.34
     70.0130	 2062.00	 2072.59	-1390.78	 1500.16
     70.0390	 2059.00	 2073.84	-1395.03	 1499.99
     70.0650	 2058.00	 2075.07	-1397.26	 1499.81
     70.0910	 2041.00	 2076.29	-1415.48	 1499.63
     70.1170	 2023.00	 2077.47	-1434.66	 1499.45
     70.1430	 2075.00	 2078.63	-1383.82	 1499.27
     70.1690	 2133.00	 2079.76	-1326.95	 1499.09
     70.1950	 2080.00	 2080.84	-1381.03	 1498.91
     70.2210	 2096.00	 2081.88	-1366.08	 1498.73
     70.2470	 2086.00	 2082.88	-1377.07	 1498.56
     70.2730	 2082.00	 2083.81	-1382.00	 1498.38
     70.2990	 2126.00	 2084.68	-1338.87	 1498.20
     70.3250	 2139.00	 2085.49	-1326.68	 1498.02
     70.3510	 2148.00	 2086.22	-1318.42	 1497.84
     70.3770	 2012.00	 2086.88	-1455.07	 1497.66
     70.4030	 2021.00	 2087.46	-1446.65	 1497.48
     70.4290	 2140.00	 2087.96	-1328.15	 1497.30
     70.4550	 2044.00	 2088.36	-1424.55	 1497.13
     70.4810	 2044.00	 2088.68	-1424.87	 1496.95
     70.5070	 2133.00	 2088.90	-1336.09	 1496.77
     70.5330	 2112.00	 2089.02	-1357.22	 1496.59
     70.5590	 2089.00	 2089.05	-1380.24	 1496.41
     70.5850	 2020.00	 2088.98	-1449.17	 1496.23
     70.6110	 2037.00	 2088.81	-1432.00	 1496.05
     70.6370	 2025.00	 2088.54	-1443.73	 1495.87
     70.6630	 1992.00	 2088.17	-1476.36	 1495.70
     70.6890	 2030.00	 2087.71	-1437.90	 1495.52
     70.7150	 2082.00	 2087.15	-1385.34	 1495.34
     70.7410	 2111.00	 2086.49	-1355.68	 1495.16
     70.7670	 2032.00	 2085.75	-1433.94	 1494.98
     70.7930	 2057.00	 2084.93	-1408.12	 1494.80
     70.8190	 2064.00	 2084.02	-1400.21	 1494.62
     70.8450	 2088.00	 2083.03	-1375.22	 1494.44
     70.8710	 2049.00	 2081.98	-1413.17	 1494.27
     70.8970	 1986.00	 2080.85	-1475.04	 1494.09
     70.9230	 2085.00	 2079.66	-1374.85	 1493.91
     70.9490	 2043.00	 2078.42	-1415.61	 1493.73
     70.9750	 2120.00	 2077.12	-1337.31	 1493.55
     71.0010	 2091.00	 2075.77	-1364.96	 1493.37
     71.0270	 2082.00	 2074.39	-1372.58	 1493.19
     71.0530	 2044.00	 2072.97	-1409.16	 1493.01
     71.0790	 2102.00	 2071.52	-1349.71	 1492.84
     71.1050	 2066.00	 2070.04	-1384.23	 1492.66
     71.1310	 2068.00	 2068.54	-1380.73	 1492.48
     71.1570	 2053.00	 2067.03	-1394.22	 1492.30
     71.1830	 2035.00	 2065.50	-1410.69	 1492.12
     71.2090	 2117.00	 2063.97	-1327.16	 1491.94
     71.2350	 2075.00	 2062.43	-1367.62	 1491.76
     71.2610	 2030.00	 2060.90	-1411.09	 1491.58
     71.2870	 2047.00	 2059.37	-1392.56	 1491.41
     71.3130	 2037.00	 2057.85	-1401.04	 1491.23
     71.3390	 2038.00	 2056.33	-1398.52	 1491.05
     71.3650	 2058.00	 2054.84	-1377.03	 1490.87
     71.3910	 1952.00	 2053.35	-1481.54	 1490.69
     71.4170	 1963.00	 2051.89	-1469.08	 1490.51
     71.4430	 2039.00	 2050.45	-1391.64	 1490.33
     71.4690	 2042.00	 2049.03	-1387.22	 1490.15
     71.4950	 2000.00	 2047.63	-1427.82	 1489.98
     71.5210	 2078.00	 2046.26	-1348.45	 1489.80
     71.5470	 2048.00	 2044.91	-1377.10	 1489.62
     71.5730	 1966.00	 2043.59	-1457.78	 1489.44
     71.5990	 2004.00	 2042.31	-1418.50	 1489.26
     71.6250	 2054.00	 2041.05	-1367.24	 1489.08
     71.6510	 2065.00	 2039.82	-1355.01	 1488.90
     71.6770	 2085.00	 2038.62	-1333.81	 1488.72
     71.7030	 2101.00	 2037.45	-1316.64	 1488.55
     71.7290	 2082.00	 2036.31	-1334.50	 1488.37
     71.7550	 2076.00	 2035.20	-1339.39	 1488.19
     71.7810	 2016.00	 2034.13	-1398.32	 1488.01
     71.8070	 1975.00	 2033.09	-1438.28	 1487.83
     71.8330	 1974.00	 2032.07	-1438.27	 1487.65
     71.8590	 1977.00	 2031.09	-1434.28	 1487.47
     71.8850	 1982.00	 2030.15	-1428.34	 1487.30
     71.9110	 1975.00	 2029.28	-1434.47	 1487.17
     71.9370	 2030.00	 2028.54	-1378.73	 1487.14
     71.9630	 2007.00	 2027.84	-1401.03	 1487.11
     71.9890	 1953.00	 2027.16	-1454.35	 1487.08
     72.0150	 1987.00	 2026.52	-1419.71	 1487.06
     72.0410	 2014.00	 2025.91	-1392.10	 1487.03
     72.0670	 2033.00	 2025.32	-1372.51	 1487.00
     72.0930	 2002.00	 2024.77	-1402.96	 1486.97
     72.1190	 2019.00	 2024.24	-1385.43	 1486.95
     72.1450	 2005.00	 2023.75	-1398.94	 1486.92
     72.1710	 1987.00	 2023.28	-1416.47	 1486.89
     72.1970	 2077.00	 2022.84	-1326.03	 1486.86
     72.2230	 2051.00	 2022.43	-1351.62	 1486.84
     72.2490	 1988.00	 2022.05	-1414.24	 1486.81
     72.2750	 1982.00	 2021.70	-1419.89	 1486.78
     72.3010	 1969.00	 2021.37	-1432.56	 1486.75
     72.3270	 1964.00	 2021.07	-1437.26	 1486.72
     72.3530	 1961.00	 2020.80	-1439.99	 1486.70
     72.3790	 2006.00	 2020.56	-1394.75	 1486.67
     72.4050	 1974.00	 2020.34	-1426.53	 1486.64
     72.4310	 2001.00	 2020.15	-1399.34	 1486.61
     72.4570	 1983.00	 2019.99	-1417.18	 1486.59
     72.4830	 2025.00	 2019.85	-1375.04	 1486.56
     72.5090	 2019.00	 2019.74	-1380.93	 1486.53
     72.5350	 2071.00	 2019.66	-1328.85	 1486.50
     72.5610	 1977.00	 2019.60	-1422.79	 1486.48
     72.5870	 2028.00	 2019.57	-1371.76	 1486.45
     72.6130	 1973.00	 2019.57	-1426.76	 1486.42
     72.6390	 1918.00	 2019.60	-1481.79	 1486.39
     72.6650	 1965.00	 2019.65	-1434.84	 1486.37
     72.6910	 1989.00	 2019.73	-1410.92	 1486.34
     72.7170	 1962.00	 2019.84	-1438.03	 1486.31
     72.7430	 2034.00	 2019.98	-1366.17	 1486.28
     72.7690	 1965.00	 2020.15	-1435.34	 1486.26
     72.7950	 1961.00	 2020.34	-1439.53	 1486.23
     72.8210	 2001.00	 2020.56	-1399.76	 1486.20
     72.8470	 2022.00	 2020.82	-1379.01	 1486.17
     72.8730	 1987.00	 2021.10	-1414.29	 1486.15
     72.8990	 1956.00	 2021.42	-1445.61	 1486.12
     72.9250	 2028.00	 2021.76	-1373.95	 1486.09
     72.9510	 1985.00	 2022.14	-1417.33	 1486.06
     72.9770	 1988.00	 2022.55	-1414.74	 1486.04
     73.0030	 2013.00	 2022.99	-1390.18	 1486.01
     73.0290	 1994.00	 2023.46	-1409.65	 1485.98
     73.0550	 1929.00	 2023.97	-1475.16	 1485.95
     73.0810	 2000.00	 2024.52	-1404.71	 1485.93
     73.1070	 2050.00	 2025.10	-1355.29	 1485.90
     73.1330	 2069.00	 2025.72	-1336.91	 1485.87
     73.1590	 1995.00	 2026.38	-1411.57	 1485.84
     73.1850	 1946.00	 2027.07	-1461.26	 1485.82
     73.2110	 2059.00	 2027.81	-1349.00	 1485.79
     73.2370	 2075.00	 2028.59	-1333.78	 1485.76
     73.2630	 2007.00	 2029.41	-1402.60	 1485.73
     73.2890	 2018.00	 2030.28	-1392.47	 1485.71
     73.3150	 1974.00	 2031.19	-1437.38	 1485.68
     73.3410	 2042.00	 2032.15	-1370.34	 1485.65
     73.3670	 2013.00	 2033.16	-1400.35	 1485.62
     73.3930	 2013.00	 2034.21	-1401.41	 1485.59
     73.4190	 1990.00	 2035.33	-1425.52	 1485.57
     73.4450	 2029.00	 2036.49	-1387.69	 1485.54
     73.4710	 2013.00	 2037.72	-1404.91	 1485.51
     73.4970	 2039.00	 2039.00	-1380.19	 1485.48
     73.5230	 2051.00	 2040.35	-1369.54	 1485.46
     73.5490	 2018.00	 2041.76	-1403.95	 1485.43
     73.5750	 1951.00	 2043.24	-1472.43	 1485.40
     73.6010	 2033.00	 2044.79	-1391.98	 1485.37
     73.6270	 1987.00	 2046.42	-1439.61	 1485.35
     73.6530	 2059.00	 2048.12	-1369.31	 1485.32
     73.6790	 2010.00	 2049.91	-1420.10	 1485.29
     73.7050	 2079.00	 2051.74	-1352.93	 1485.26
     73.7310	 2003.00	 2053.71	-1430.90	 1485.24
     73.7570	 2013.00	 2055.75	-1422.94	 1485.21
     73.7830	 2041.00	 2057.92	-1397.11	 1485.18
     73.8090	 2010.00	 2060.19	-1430.38	 1485.15
     73.8350	 2073.00	 2062.58	-1369.77	 1485.13
     73.8610	 2081.00	 2065.09	-1364.28	 1485.10
     73.8870	 2103.00	 2067.74	-1344.93	 1485.07
     73.9130	 2043.00	 2070.53	-1407.72	 1485.04
     73.9390	 2030.00	 2073.47	-1423.66	 1485.02
     73.9650	 2085.00	 2076.57	-1371.76	 1484.99
     73.9910	 2154.00	 2079.85	-1306.04	 1484.96
     74.0170	 2090.00	 2083.32	-1373.51	 1484.93
     74.0430	 2107.00	 2086.99	-1360.18	 1484.91
     74.0690	 2091.00	 2090.88	-1380.07	 1484.88
     74.0950	 2072.00	 2095.01	-1403.20	 1484.85
     74.1210	 2046.00	 2099.39	-1433.58	 1484.82
     74.1470	 2103.00	 2104.05	-1381.24	 1484.80
     74.1730	 2187.00	 2109.00	-1302.19	 1484.77
     74.1990	 2176.00	 2114.26	-1318.45	 1484.74
     74.2250	 2120.00	 2119.86	-1380.05	 1484.71
     74.2510	 2129.00	 2125.80	-1376.99	 1484.69
     74.2770	 2161.00	 2132.12	-1351.31	 1484.66
     74.3030	 2223.00	 2138.80	-1295.99	 1484.63
     74.3290	 2178.00	 2145.87	-1348.06	 1484.60
     74.3550	 2114.00	 2153.30	-1419.49	 1484.58
     74.3810	 2125.00	 2161.08	-1416.27	 1484.55
     74.4070	 2182.00	 2169.17	-1367.36	 1484.52
     74.4330	 2216.00	 2177.49	-1341.68	 1484.49
     74.4590	 2239.00	 2185.97	-1327.16	 1484.46
     74.4850	 2271.00	 2194.48	-1303.67	 1484.44
     74.5110	 2229.00	 2202.88	-1354.07	 1484.41
     74.5370	 2170.00	 2210.97	-1421.16	 1484.38
     74.5630	 2154.00	 2218.57	-1444.76	 1484.35
     74.5890	 2179.00	 2225.47	-1426.66	 1484.33
     74.6150	 2181.00	 2231.46	-1430.65	 1484.30
     74.6410	 2172.00	 2236.35	-1444.54	 1484.27
     74.6670	 2202.00	 2240.02	-1418.21	 1484.24
     74.6930	 2215.00	 2242.35	-1407.54	 1484.22
     74.7190	 2223.00	 2243.32	-1400.51	 1484.19
     74.7450	 2265.00	 2242.92	-1358.11	 1484.16
     74.7710	 2261.00	 2241.22	-1360.41	 1484.13
     74.7970	 2262.00	 2238.29	-1356.48	 1484.11
     74.8230	 2207.00	 2234.24	-1407.44	 1484.08
     74.8490	 2127.00	 2229.19	-1482.38	 1484.05
     74.8750	 2140.00	 2223.26	-1463.45	 1484.02
     74.9010	 2185.00	 2216.56	-1411.75	 1484.00
     74.9270	 2196.00	 2209.24	-1393.44	 1483.97
     74.9530	 2208.00	 2201.44	-1373.63	 1483.94
     74.9790	 2178.00	 2193.27	-1395.47	 1483.91
     75.0050	 2234.00	 2184.90	-1331.09	 1483.89
     75.0310	 2216.00	 2176.44	-1340.63	 1483.86
     75.0570	 2184.00	 2168.01	-1364.20	 1483.83
     75.0830	 2193.00	 2159.72	-1346.91	 1483.80
     75.1090	 2140.00	 2151.64	-1391.83	 1483.78
     75.1350	 2173.00	 2143.84	-1351.03	 1483.75
     75.1610	 2140.00	 2136.37	-1376.56	 1483.72
     75.1870	 2112.00	 2129.26	-1397.45	 1483.69
     75.2130	 2145.00	 2122.52	-1357.71	 1483.67
     75.2390	 2200.00	 2116.16	-1296.35	 1483.64
     75.2650	 2140.00	 2110.17	-1350.36	 1483.61
     75.2910	 2140.00	 2104.54	-1344.73	 1483.58
     75.3170	 2088.00	 2099.26	-1391.45	 1483.56
     75.3430	 2101.00	 2094.31	-1373.51	 1483.53
     75.3690	 2090.00	 2089.68	-1379.87	 1483.50
     75.3950	 2087.00	 2085.35	-1378.54	 1483.47
     75.4210	 2092.00	 2081.29	-1369.48	 1483.44
     75.4470	 2131.00	 2077.49	-1326.68	 1483.42
     75.4730	 2056.00	 2073.92	-1398.12	 1483.39
     75.4990	 2125.00	 2070.59	-1325.78	 1483.36
     75.5250	 2082.00	 2067.46	-1365.65	 1483.33
     75.5510	 2043.00	 2064.52	-1401.71	 1483.31
     75.5770	 2101.00	 2061.76	-1340.95	 1483.28
     75.6030	 2005.00	 2059.17	-1434.36	 1483.25
     75.6290	 2065.00	 2056.73	-1371.92	 1483.22
     75.6550	 2053.00	 2054.44	-1381.64	 1483.20
     75.6810	 2017.00	 2052.29	-1415.48	 1483.17
     75.7070	 2059.00	 2050.26	-1371.45	 1483.14
     75.7330	 2066.00	 2048.35	-1362.54	 1483.11
     75.7590	 2138.00	 2046.56	-1288.75	 1483.09
     75.7850	 2072.00	 2044.86	-1353.06	 1483.06
     75.8110	 2000.00	 2043.27	-1423.46	 1483.03
     75.8370	 2126.00	 2041.77	-1295.96	 1483.00
     75.8630	 2116.00	 2040.36	-1304.55	 1482.98
     75.8890	 2159.00	 2039.03	-1260.22	 1482.95
     75.9150	 2044.00	 2037.78	-1373.97	 1482.92
     75.9410	 2044.00	 2036.60	-1372.79	 1482.89
     75.9670	 2043.00	 2035.50	-1372.69	 1482.87
     75.9930	 2052.00	 2034.46	-1362.65	 1482.84
     76.0190	 2010.00	 2033.49	-1403.68	 1482.81
     76.0450	 2040.00	 2032.58	-1372.77	 1482.78
     76.0710	 1986.00	 2031.73	-1425.92	 1482.76
     76.0970	 2048.00	 2030.94	-1363.13	 1482.73
     76.1230	 2029.00	 2030.20	-1381.39	 1482.70
     76.1490	 2113.00	 2029.52	-1296.71	 1482.67
     76.1750	 2070.00	 2028.88	-1339.07	 1482.65
     76.2010	 2031.00	 2028.30	-1377.49	 1482.62
     76.2270	 2045.00	 2027.77	-1362.96	 1482.59
     76.2530	 1968.00	 2027.28	-1439.47	 1482.56
     76.2790	 2065.00	 2026.83	-1342.02	 1482.54
     76.3050	 2002.00	 2026.43	-1404.62	 1482.51
     76.3310	 2096.00	 2026.08	-1310.27	 1482.48
     76.3570	 2089.00	 2025.76	-1316.95	 1482.45
     76.3830	 2143.00	 2025.49	-1262.68	 1482.43
     76.4090	 2091.00	 2025.26	-1314.45	 1482.40
     76.4350	 2044.00	 2025.07	-1361.26	 1482.37
     76.4610	 2054.00	 2024.91	-1351.10	 1482.34
     76.4870	 2087.00	 2024.80	-1317.99	 1482.31
     76.5130	 2042.00	 2024.72	-1362.91	 1482.29
     76.5390	 2076.00	 2024.68	-1328.87	 1482.26
     76.5650	 2025.00	 2024.68	-1379.87	 1482.23
     76.5910	 2034.00	 2024.71	-1370.90	 1482.20
     76.6170	 1997.00	 2024.78	-1407.97	 1482.18
     76.6430	 2020.00	 2024.88	-1385.07	 1482.15
     76.6690	 2083.00	 2025.02	-1322.22	 1482.12
     76.6950	 2072.00	 2025.20	-1333.39	 1482.09
     76.7210	 2045.00	 2025.23	-1360.42	 1481.88
     76.7470	 2118.00	 2025.01	-1287.20	 1481.39
     76.7730	 2072.00	 2024.83	-1333.02	 1480.90
     76.7990	 2060.00	 2024.68	-1344.87	 1480.40
     76.8250	 2060.00	 2024.57	-1344.76	 1479.91
     76.8510	 2050.00	 2024.49	-1354.68	 1479.41
     76.8770	 2062.00	 2024.45	-1342.64	 1478.92
     76.9030	 2058.00	 2024.44	-1346.64	 1478.42
     76.9290	 2061.00	 2024.47	-1343.67	 1477.93
     76.9550	 2057.00	 2024.54	-1347.73	 1477.44
     76.9810	 2083.00	 2024.64	-1321.83	 1476.94
     77.0070	 2089.00	 2024.78	-1315.97	 1476.45
     77.0330	 2020.00	 2024.96	-1385.15	 1475.95
     77.0590	 2032.00	 2025.17	-1373.36	 1475.46
     77.0850	 2075.00	 2025.42	-1330.61	 1474.96
     77.1110	 2057.00	 2025.70	-1348.89	 1474.47
     77.1370	 2076.00	 2026.02	-1330.21	 1473.98
     77.1630	 2076.00	 2026.38	-1330.57	 1473.48
     77.1890	 2050.00	 2026.78	-1356.97	 1472.99
     77.2150	 2093.00	 2027.21	-1314.41	 1472.49
     77.2410	 2102.00	 2027.69	-1305.88	 1472.00
     77.2670	 2060.00	 2028.20	-1348.39	 1471.51
     77.2930	 2071.00	 2028.74	-1337.93	 1471.01
     77.3190	 2057.00	 2029.33	-1352.52	 1470.52
     77.3450	 2036.00	 2029.95	-1374.14	 1470.02
     77.3710	 2076.00	 2030.61	-1334.80	 1469.53
     77.3970	 2074.00	 2031.30	-1337.49	 1469.03
     77.4230	 2041.00	 2032.04	-1371.23	 1468.54
     77.4490	 2038.00	 2032.80	-1374.99	 1468.05
     77.4750	 2068.00	 2033.61	-1345.80	 1467.55
     77.5010	 2070.00	 2034.44	-1344.63	 1467.06
     77.5270	 2079.00	 2035.31	-1336.50	 1466.56
     77.5530	 2059.00	 2036.22	-1357.41	 1466.07
     77.5790	 2051.00	 2037.15	-1366.34	 1465.57
     77.6050	 2046.00	 2038.11	-1372.30	 1465.08
     77.6310	 2102.00	 2039.11	-1317.30	 1464.59
     77.6570	 2042.00	 2040.12	-1378.31	 1464.09
     77.6830	 2068.00	 2041.17	-1353.36	 1463.60
     77.7090	 2049.00	 2042.23	-1373.42	 1463.10
     77.7350	 2096.00	 2043.32	-1327.51	 1462.61
     77.7610	 2065.00	 2044.42	-1359.61	 1462.11
     77.7870	 2028.00	 2045.53	-1397.72	 1461.62
     77.8130	 2006.00	 2046.66	-1420.85	 1461.13
     77.8390	 2051.00	 2047.79	-1376.98	 1460.63
     77.8650	 2053.00	 2048.92	-1376.11	 1460.14
     77.8910	 1997.00	 2050.06	-1433.25	 1459.64
     77.9170	 2022.00	 2051.18	-1409.37	 1459.15
     77.9430	 2039.00	 2052.30	-1393.49	 1458.65
     77.9690	 2097.00	 2053.40	-1336.59	 1458.16
     77.9950	 2033.00	 2054.49	-1401.68	 1457.67
     78.0210	 2124.00	 2055.54	-1311.73	 1457.17
     78.0470	 2005.00	 2056.57	-1431.76	 1456.68
     78.0730	 2041.00	 2057.56	-1396.75	 1456.18
     78.0990	 2032.00	 2058.50	-1406.69	 1455.69
     78.1250	 2038.00	 2059.40	-1401.59	 1455.20
     78.1510	 2064.00	 2060.24	-1376.43	 1454.70
     78.1770	 2036.00	 2061.02	-1405.21	 1454.21
     78.2030	 2015.00	 2061.74	-1426.93	 1453.71
     78.2290	 2078.00	 2062.38	-1364.57	 1453.22
     78.2550	 2011.00	 2062.94	-1432.13	 1452.72
     78.2810	 2065.00	 2063.42	-1378.61	 1452.23
     78.3070	 1982.00	 2063.81	-1462.00	 1451.74
     78.3330	 2115.00	 2064.11	-1329.30	 1451.24
     78.3590	 2056.00	 2064.30	-1388.49	 1450.75
     78.3850	 2075.00	 2064.40	-1369.59	 1450.25
     78.4110	 2076.00	 2064.39	-1368.58	 1449.76
     78.4370	 2160.00	 2064.27	-1284.46	 1449.26
     78.4630	 2032.00	 2064.03	-1412.22	 1448.77
     78.4890	 2056.00	 2063.69	-1387.88	 1448.28
     78.5150	 2042.00	 2063.22	-1401.41	 1447.78
     78.5410	 2049.00	 2062.64	-1393.83	 1447.29
     78.5670	 2080.00	 2061.95	-1362.14	 1446.79
     78.5930	 2017.00	 2061.13	-1424.32	 1446.30
     78.6190	 2060.00	 2060.21	-1380.40	 1445.80
     78.6450	 2073.00	 2059.17	-1366.36	 1445.31
     78.6710	 1948.00	 2058.02	-1490.21	 1444.82
     78.6970	 2051.00	 2056.76	-1385.95	 1444.32
     78.7230	 2061.00	 2055.39	-1374.58	 1443.83
     78.7490	 2048.00	 2053.93	-1386.12	 1443.33
     78.7750	 2032.00	 2052.37	-1400.56	 1442.84
     78.8010	 2050.00	 2050.72	-1380.91	 1442.34
     78.8270	 1972.00	 2048.98	-1457.17	 1441.85
     78.8530	 2049.00	 2047.16	-1378.35	 1441.36
     78.8790	 2058.00	 2045.26	-1367.45	 1440.86
     78.9050	 2090.00	 2043.29	-1333.48	 1440.37
     78.9310	 2049.00	 2041.26	-1372.45	 1439.87
     78.9570	 1999.00	 2039.17	-1420.36	 1439.38
     78.9830	 2009.00	 2037.03	-1408.22	 1438.89
     79.0090	 2063.00	 2034.83	-1352.02	 1438.39
     79.0350	 2025.00	 2032.60	-1387.79	 1437.90
     79.0610	 1996.00	 2030.33	-1414.52	 1437.40
     79.0870	 1986.00	 2028.03	-1422.22	 1436.91
     79.1130	 2075.00	 2025.71	-1330.90	 1436.41
     79.1390	 2098.00	 2023.37	-1305.56	 1435.92
     79.1650	 2001.00	 2021.01	-1400.20	 1435.43
     79.1910	 2028.00	 2018.64	-1370.83	 1434.93
     79.2170	 2020.00	 2016.26	-1376.45	 1434.44
     79.2430	 1982.00	 2013.88	-1412.07	 1433.94
     79.2690	 1988.00	 2011.51	-1403.70	 1433.45
     79.2950	 1993.00	 2009.14	-1396.33	 1432.95
     79.3210	 2025.00	 2006.77	-1361.96	 1432.46
     79.3470	 1948.00	 2004.42	-1436.61	 1431.97
     79.3730	 1929.00	 2002.09	-1453.28	 1431.47
     79.3990	 1948.00	 1999.77	-1431.96	 1430.98
     79.4250	 1908.00	 1997.47	-1469.66	 1430.48
     79.4510	 1935.00	 1995.19	-1440.38	 1429.99
     79.4770	 1974.00	 1992.93	-1399.12	 1429.49
     79.5030	 1929.00	 1990.70	-1441.89	 1429.00
     79.5290	 1919.00	 1988.49	-1449.68	 1428.51
     79.5550	 1946.00	 1986.31	-1420.50	 1428.01
     79.5810	 1901.00	 1984.16	-1463.35	 1427.52
     79.6070	 1903.00	 1982.04	-1459.23	 1427.02
     79.6330	 1917.00	 1979.95	-1443.14	 1426.53
     79.6590	 1914.00	 1977.89	-1444.08	 1426.04
     79.6850	 1968.00	 1975.85	-1388.04	 1425.54
     79.7110	 1990.00	 1973.85	-1364.04	 1425.05
     79.7370	 1938.00	 1971.88	-1414.07	 1424.55
     79.7630	 1889.00	 1969.94	-1461.13	 1424.06
     79.7890	 1920.00	 1968.04	-1428.23	 1423.56
     79.8150	 1928.00	 1966.16	-1418.35	 1423.07
     79.8410	 1892.00	 1964.31	-1452.50	 1422.58
     79.8670	 1909.00	 1962.99	-1434.18	 1422.58
     18.1939	        	        	        	        	       0	(  1  1  1)	  0  1
     18.2399	        	        	        	        	       0	(  1  1  1)	  0  2
     29.9248	        	        	        	        	       0	(  2  2  0)	  0  1
     30.0017	        	        	        	        	       0	(  2  2  0)	  0  2
     35.2456	        	        	        	        	       0	(  3  1  1)	  0  1
     35.3369	        	        	        	        	       0	(  3  1  1)	  0  2
     36.8679	        	        	        	        	       0	(  2  2  2)	  0  1
     36.9293	        	        	        	        	    -345	(  1  1  1)	  0  1
     36.9637	        	        	        	        	       0	(  2  2  2)	  0  2
     37.0253	        	        	        	        	    -345	(  1  1  1)	  0  2
     42.8310	        	        	        	        	       0	(  4  0  0)	  0  1
     42.9033	        	        	        	        	    -345	(  2  0  0)	  0  1
     42.9438	        	        	        	        	       0	(  4  0  0)	  0  2
     43.0163	        	        	        	        	    -345	(  2  0  0)	  0  2
     46.8927	        	        	        	        	       0	(  3  3  1)	  0  1
     47.0174	        	        	        	        	       0	(  3  3  1)	  0  2
     53.1270	        	        	        	        	       0	(  4  2  2)	  0  1
     53.2709	        	        	        	        	       0	(  4  2  2)	  0  2
     56.6297	        	        	        	        	       0	(  5  1  1)	  0  1
     56.6297	        	        	        	        	       0	(  3  3  3)	  0  1
     56.7847	        	        	        	        	       0	(  5  1  1)	  0  2
     56.7847	        	        	        	        	       0	(  3  3  3)	  0  2
     62.1782	        	        	        	        	       0	(  4  4  0)	  0  1
     62.2893	        	        	        	        	    -345	(  2  2  0)	  0  1
     62.3516	        	        	        	        	       0	(  4  4  0)	  0  2
     62.4632	        	        	        	        	    -345	(  2  2  0)	  0  2
     65.3718	        	        	        	        	       0	(  5  3  1)	  0  1
     65.5564	        	        	        	        	       0	(  5  3  1)	  0  2
     66.4178	        	        	        	        	       0	(  4  4  2)	  0  1
     66.6062	        	        	        	        	       0	(  4  4  2)	  0  2
     70.5245	        	        	        	        	       0	(  6  2  0)	  0  1
     70.7279	        	        	        	        	       0	(  6  2  0)	  0  2
     73.5362	        	        	        	        	       0	(  5  3  3)	  0  1
     73.7512	        	        	        	        	       0	(  5  3  3)	  0  2
     74.5293	        	        	        	        	       0	(  6  2  2)	  0  1
     74.6696	        	        	        	        	    -345	(  3  1  1)	  0  1
     74.7483	        	        	        	        	       0	(  6  2  2)	  0  2
     74.8891	        	        	        	        	    -345	(  3  1  1)	  0  2
     78.4581	        	        	        	        	       0	(  4  4  4)	  0  1
     78.6086	        	        	        	        	    -345	(  2  2  2)	  0  1
     78.6930	        	        	        	        	       0	(  4  4  4)	  0  2
     78.8442	        	        	        	        	    -345	(  2  2  2)	  0  2
