 PMK18    CELL:    8.38426   8.38426   8.38426   90.0000   90.0000   90.0000   SPGR: F d -3 m               TEMP:      0.00
  2   2461     1.54056     1.54443     0.00000     0.00000     0.00000    0
    30     8     0     0     0
 2Theta	Yobs	Ycal	Yobs-Ycal	Backg	Posr	(hkl)	K
     15.0210	 5151.00	 5053.42	-1920.67	 4324.60
     15.0470	 5178.00	 5055.88	-1896.13	 4326.68
     15.0730	 5157.00	 5058.35	-1919.60	 4328.77
     15.0990	 5162.00	 5060.82	-1917.07	 4330.86
     15.1250	 5045.00	 5063.30	-2036.55	 4332.95
     15.1510	 5167.00	 5065.79	-1917.04	 4335.04
     15.1770	 5203.00	 5068.29	-1883.54	 4337.13
     15.2030	 5125.00	 5070.79	-1964.04	 4339.21
     15.2290	 5160.00	 5073.30	-1931.55	 4341.30
     15.2550	 5166.00	 5075.83	-1928.08	 4343.39
     15.2810	 5236.00	 5078.35	-1860.60	 4345.48
     15.3070	 5251.00	 5080.89	-1848.14	 4347.57
     15.3330	 5161.00	 5083.44	-1940.69	 4349.66
     15.3590	 5151.00	 5086.00	-1953.25	 4351.74
     15.3850	 5083.00	 5088.56	-2023.81	 4353.83
     15.4110	 5179.00	 5091.14	-1930.39	 4355.92
     15.4370	 5238.00	 5093.72	-1873.97	 4358.01
     15.4630	 5142.00	 5096.32	-1972.57	 4360.10
     15.4890	 5221.00	 5098.92	-1896.17	 4362.19
     15.5150	 5338.00	 5101.54	-1781.79	 4364.27
     15.5410	 5163.00	 5104.17	-1959.42	 4366.36
     15.5670	 5325.00	 5106.81	-1800.06	 4368.45
     15.5930	 5061.00	 5109.46	-2066.71	 4370.54
     15.6190	 5218.00	 5112.12	-1912.37	 4372.63
     15.6450	 5190.00	 5114.80	-1943.05	 4374.72
     15.6710	 5169.00	 5117.49	-1966.74	 4376.80
     15.6970	 5148.00	 5120.19	-1990.44	 4378.89
     15.7230	 5155.00	 5122.91	-1986.16	 4380.98
     15.7490	 5133.00	 5125.64	-2010.89	 4383.07
     15.7750	 5199.00	 5128.38	-1947.63	 4385.16
     15.8010	 5197.00	 5131.14	-1952.39	 4387.25
     15.8270	 5103.00	 5133.91	-2049.16	 4389.33
     15.8530	 5168.00	 5136.70	-1986.95	 4391.42
     15.8790	 5190.00	 5139.51	-1967.76	 4393.51
     15.9050	 5321.00	 5142.33	-1839.58	 4395.60
     15.9310	 5172.00	 5145.17	-1991.42	 4397.69
     15.9570	 5091.00	 5148.03	-2075.28	 4399.78
     15.9830	 5284.00	 5150.91	-1885.16	 4401.86
     16.0090	 5166.00	 5153.80	-2006.05	 4403.95
     16.0350	 5230.00	 5156.72	-1944.97	 4406.04
     16.0610	 5325.00	 5159.65	-1852.90	 4408.13
     16.0870	 5221.00	 5163.93	-1961.18	 4411.54
     16.1130	 5216.00	 5169.70	-1971.95	 4416.43
     16.1390	 5249.00	 5175.50	-1944.75	 4421.31
     16.1650	 5274.00	 5181.32	-1925.57	 4426.20
     16.1910	 5142.00	 5187.16	-2063.41	 4431.09
     16.2170	 5173.00	 5193.02	-2038.27	 4435.97
     16.2430	 5281.00	 5198.91	-1936.16	 4440.86
     16.2690	 5189.00	 5204.83	-2034.08	 4445.75
     16.2950	 5160.00	 5210.77	-2069.02	 4450.63
     16.3210	 5274.00	 5216.74	-1960.99	 4455.52
     16.3470	 5224.00	 5222.73	-2016.98	 4460.41
     16.3730	 5254.00	 5228.76	-1993.01	 4465.29
     16.3990	 5314.00	 5234.81	-1939.06	 4470.18
     16.4250	 5190.00	 5240.89	-2069.14	 4475.07
     16.4510	 5313.00	 5247.01	-1952.26	 4479.95
     16.4770	 5341.00	 5253.16	-1930.41	 4484.84
     16.5030	 5305.00	 5259.34	-1972.59	 4489.73
     16.5290	 5394.00	 5265.55	-1889.80	 4494.61
     16.5550	 5384.00	 5271.80	-1906.05	 4499.50
     16.5810	 5241.00	 5278.08	-2055.33	 4504.39
     16.6070	 5205.00	 5284.41	-2097.66	 4509.27
     16.6330	 5148.00	 5290.77	-2161.02	 4514.16
     16.6590	 5208.00	 5297.17	-2107.42	 4519.05
     16.6850	 5366.00	 5303.61	-1955.86	 4523.93
     16.7110	 5354.00	 5310.09	-1974.34	 4528.82
     16.7370	 5334.00	 5316.61	-2000.86	 4533.71
     16.7630	 5393.00	 5323.18	-1948.43	 4538.59
     16.7890	 5344.00	 5329.79	-2004.04	 4543.48
     16.8150	 5322.00	 5336.45	-2032.70	 4548.37
     16.8410	 5415.00	 5343.16	-1946.41	 4553.25
     16.8670	 5426.00	 5349.91	-1942.16	 4558.14
     16.8930	 5433.00	 5356.71	-1941.96	 4563.02
     16.9190	 5411.00	 5365.19	-1972.44	 4569.54
     16.9450	 5290.00	 5376.78	-2105.03	 4579.11
     16.9710	 5356.00	 5388.43	-2050.68	 4588.69
     16.9970	 5527.00	 5400.13	-1891.38	 4598.26
     17.0230	 5487.00	 5411.89	-1943.14	 4607.84
     17.0490	 5428.00	 5423.69	-2013.94	 4617.41
     17.0750	 5432.00	 5435.56	-2021.81	 4626.99
     17.1010	 5367.00	 5447.48	-2098.73	 4636.57
     17.1270	 5485.00	 5459.46	-1992.71	 4646.14
     17.1530	 5541.00	 5471.50	-1948.75	 4655.72
     17.1790	 5520.00	 5483.60	-1981.85	 4665.29
     17.2050	 5622.00	 5495.75	-1892.00	 4674.87
     17.2310	 5520.00	 5507.96	-2006.21	 4684.45
     17.2570	 5556.00	 5520.23	-1982.48	 4694.02
     17.2830	 5526.00	 5532.56	-2024.81	 4703.60
     17.3090	 5539.00	 5544.95	-2024.20	 4713.17
     17.3350	 5569.00	 5557.39	-2006.64	 4722.75
     17.3610	 5587.00	 5569.89	-2001.14	 4732.33
     17.3870	 5583.00	 5582.44	-2017.69	 4741.90
     17.4130	 5547.00	 5595.05	-2066.30	 4751.48
     17.4390	 5569.00	 5607.70	-2056.95	 4761.05
     17.4650	 5554.00	 5620.40	-2084.65	 4770.63
     17.4910	 5556.00	 5633.15	-2095.40	 4780.21
     17.5170	 5621.00	 5645.93	-2043.18	 4789.78
     17.5430	 5667.00	 5658.76	-2010.01	 4799.36
     17.5690	 5550.00	 5671.61	-2139.86	 4808.93
     17.5950	 5689.00	 5684.50	-2013.75	 4818.51
     17.6210	 5794.00	 5697.40	-1921.65	 4828.09
     17.6470	 5628.00	 5710.32	-2100.57	 4837.66
     17.6730	 5633.00	 5723.25	-2108.50	 4847.24
     17.6990	 5639.00	 5736.18	-2115.43	 4856.81
     17.7250	 5714.00	 5749.10	-2053.35	 4866.39
     17.7510	 5632.00	 5762.01	-2148.26	 4875.97
     17.7770	 5606.00	 5774.90	-2187.15	 4885.54
     17.8030	 5767.00	 5786.04	-2037.29	 4893.42
     17.8290	 5796.00	 5795.72	-2017.97	 4899.60
     17.8550	 5813.00	 5805.08	-2010.33	 4905.78
     17.8810	 5772.00	 5814.36	-2060.61	 4911.96
     17.9070	 5676.00	 5823.56	-2165.81	 4918.14
     17.9330	 5737.00	 5832.81	-2114.06	 4924.32
     17.9590	 5729.00	 5841.82	-2131.07	 4930.50
     17.9850	 5749.00	 5850.72	-2119.97	 4936.67
     18.0110	 5644.00	 5859.48	-2233.73	 4942.85
     18.0370	 5800.00	 5868.10	-2086.35	 4949.03
     18.0630	 5694.00	 5876.57	-2200.82	 4955.21
     18.0890	 5740.00	 5884.88	-2163.13	 4961.39
     18.1150	 5792.00	 5893.01	-2119.26	 4967.57
     18.1410	 5786.00	 5900.95	-2133.20	 4973.75
     18.1670	 5734.00	 5908.70	-2192.95	 4979.93
     18.1930	 5741.00	 5916.24	-2193.49	 4986.11
     18.2190	 5916.00	 5923.57	-2025.82	 4992.29
     18.2450	 5814.00	 5930.68	-2134.93	 4998.47
     18.2710	 5707.00	 5937.57	-2248.82	 5004.65
     18.2970	 5751.00	 5944.23	-2211.48	 5010.83
     18.3230	 5750.00	 5950.65	-2218.90	 5017.01
     18.3490	 5808.00	 5956.85	-2167.10	 5023.19
     18.3750	 5972.00	 5962.81	-2009.06	 5029.36
     18.4010	 5849.00	 5968.54	-2137.79	 5035.54
     18.4270	 5953.00	 5974.05	-2039.30	 5041.72
     18.4530	 5919.00	 5979.34	-2078.59	 5047.90
     18.4790	 5797.00	 5984.41	-2205.66	 5054.08
     18.5050	 5915.00	 5989.27	-2092.52	 5060.26
     18.5310	 5993.00	 5993.94	-2019.19	 5066.44
     18.5570	 5938.00	 5998.41	-2078.66	 5072.62
     18.5830	 5869.00	 6002.71	-2151.96	 5078.80
     18.6090	 5955.00	 6006.83	-2070.08	 5084.98
     18.6350	 5962.00	 6010.80	-2067.05	 5091.16
     18.6610	 5943.00	 6014.62	-2089.87	 5097.34
     18.6870	 5824.00	 6018.31	-2212.56	 5103.52
     18.7130	 5946.00	 6021.88	-2094.13	 5109.70
     18.7390	 5878.00	 6025.34	-2165.59	 5115.88
     18.7650	 5829.00	 6028.70	-2217.95	 5122.06
     18.7910	 5858.00	 6031.98	-2192.23	 5128.23
     18.8170	 5929.00	 6035.19	-2124.44	 5134.41
     18.8430	 5932.00	 6038.34	-2124.59	 5140.59
     18.8690	 5949.00	 6041.44	-2110.69	 5146.77
     18.8950	 6018.00	 6044.50	-2044.75	 5152.95
     18.9210	 6197.00	 6047.53	-1868.78	 5159.13
     18.9470	 6108.00	 6050.55	-1960.80	 5165.31
     18.9730	 6088.00	 6053.55	-1983.80	 5171.49
     18.9990	 6074.00	 6056.55	-2000.80	 5177.67
     19.0250	 6038.00	 6059.56	-2039.81	 5183.85
     19.0510	 6025.00	 6062.58	-2055.83	 5190.03
     19.0770	 6076.00	 6065.62	-2007.87	 5196.21
     19.1030	 6029.00	 6068.69	-2057.94	 5202.39
     19.1290	 6021.00	 6071.79	-2069.04	 5208.57
     19.1550	 5972.00	 6071.58	-2117.83	 5211.40
     19.1810	 5988.00	 6070.90	-2101.15	 5213.73
     19.2070	 5882.00	 6070.27	-2206.52	 5216.06
     19.2330	 5923.00	 6069.68	-2164.93	 5218.39
     19.2590	 5979.00	 6069.14	-2108.39	 5220.72
     19.2850	 6037.00	 6068.66	-2049.91	 5223.05
     19.3110	 6020.00	 6068.23	-2066.48	 5225.38
     19.3370	 5936.00	 6067.85	-2150.10	 5227.71
     19.3630	 6015.00	 6067.53	-2070.78	 5230.04
     19.3890	 6004.00	 6067.27	-2081.52	 5232.38
     19.4150	 6006.00	 6067.06	-2079.31	 5234.71
     19.4410	 6058.00	 6066.92	-2027.17	 5237.04
     19.4670	 6132.00	 6066.83	-1953.08	 5239.37
     19.4930	 6151.00	 6066.80	-1934.05	 5241.70
     19.5190	 6076.00	 6066.83	-2009.08	 5244.03
     19.5450	 6183.00	 6066.92	-1902.17	 5246.36
     19.5710	 6228.00	 6067.06	-1857.31	 5248.69
     19.5970	 6175.00	 6067.27	-1910.52	 5251.02
     19.6230	 6162.00	 6067.53	-1923.78	 5253.35
     19.6490	 6116.00	 6067.84	-1970.09	 5255.68
     19.6750	 6062.00	 6068.21	-2024.46	 5258.01
     19.7010	 5978.00	 6068.64	-2108.89	 5260.34
     19.7270	 6050.00	 6069.12	-2037.37	 5262.67
     19.7530	 6123.00	 6069.65	-1964.90	 5265.00
     19.7790	 6093.00	 6070.23	-1995.48	 5267.33
     19.8050	 6127.00	 6070.86	-1962.11	 5269.66
     19.8310	 6095.00	 6071.54	-1994.79	 5271.99
     19.8570	 6008.00	 6072.27	-2082.52	 5274.33
     19.8830	 6024.00	 6073.04	-2067.29	 5276.66
     19.9090	 6023.00	 6073.87	-2069.12	 5278.99
     19.9350	 6059.00	 6074.73	-2033.98	 5281.32
     19.9610	 6011.00	 6075.64	-2082.89	 5283.65
     19.9870	 6018.00	 6076.59	-2076.84	 5285.98
     20.0130	 6072.00	 6077.58	-2023.83	 5288.31
     20.0390	 5982.00	 6078.61	-2114.86	 5290.64
     20.0650	 6007.00	 6079.69	-2090.94	 5292.97
     20.0910	 6087.00	 6080.79	-2012.04	 5295.30
     20.1170	 6121.00	 6081.94	-1979.19	 5297.63
     20.1430	 6008.00	 6083.12	-2093.37	 5299.96
     20.1690	 6029.00	 6084.34	-2073.59	 5302.29
     20.1950	 6033.00	 6085.59	-2070.84	 5304.62
     20.2210	 6087.00	 6086.88	-2018.13	 5306.95
     20.2470	 6016.00	 6088.19	-2090.44	 5309.28
     20.2730	 6115.00	 6089.54	-1992.79	 5311.61
     20.2990	 6048.00	 6090.92	-2061.17	 5313.94
     20.3250	 6012.00	 6092.32	-2098.57	 5316.27
     20.3510	 6149.00	 6093.76	-1963.01	 5318.61
     20.3770	 6108.00	 6095.22	-2005.47	 5320.94
     20.4030	 6179.00	 6096.71	-1935.96	 5323.27
     20.4290	 6028.00	 6098.23	-2088.48	 5325.60
     20.4550	 5981.00	 6099.77	-2137.02	 5327.93
     20.4810	 6130.00	 6101.34	-1989.59	 5330.26
     20.5070	 6107.00	 6102.93	-2014.18	 5332.59
     20.5330	 6092.00	 6104.54	-2030.79	 5334.92
     20.5590	 5996.00	 6106.18	-2128.43	 5337.25
     20.5850	 6097.00	 6107.84	-2029.09	 5339.58
     20.6110	 5978.00	 6109.52	-2149.77	 5341.91
     20.6370	 6041.00	 6111.22	-2088.47	 5344.24
     20.6630	 6090.00	 6112.94	-2041.19	 5346.57
     20.6890	 6058.00	 6114.68	-2074.93	 5348.90
     20.7150	 6083.00	 6116.44	-2051.69	 5351.23
     20.7410	 6240.00	 6118.22	-1896.47	 5353.56
     20.7670	 6146.00	 6120.02	-1992.27	 5355.89
     20.7930	 6108.00	 6121.84	-2032.09	 5358.23
     20.8190	 6338.00	 6123.67	-1803.92	 5360.56
     20.8450	 6230.00	 6125.52	-1913.77	 5362.89
     20.8710	 6139.00	 6127.38	-2006.63	 5365.22
     20.8970	 6168.00	 6129.26	-1979.51	 5367.55
     20.9230	 6191.00	 6131.16	-1958.41	 5369.88
     20.9490	 6280.00	 6133.07	-1871.32	 5372.21
     20.9750	 6325.00	 6134.99	-1828.24	 5374.54
     21.0010	 6108.00	 6137.10	-2047.35	 5377.04
     21.0270	 6336.00	 6140.09	-1822.34	 5380.40
     21.0530	 6162.00	 6143.09	-1999.34	 5383.77
     21.0790	 6144.00	 6146.11	-2020.36	 5387.14
     21.1050	 6230.00	 6149.14	-1937.39	 5390.50
     21.1310	 6304.00	 6152.18	-1866.43	 5393.87
     21.1570	 6098.00	 6155.23	-2075.48	 5397.24
     21.1830	 6159.00	 6158.29	-2017.54	 5400.60
     21.2090	 6189.00	 6161.37	-1990.62	 5403.97
     21.2350	 6262.00	 6164.46	-1920.71	 5407.33
     21.2610	 6321.00	 6167.56	-1864.81	 5410.70
     21.2870	 6292.00	 6170.67	-1896.92	 5414.07
     21.3130	 6280.00	 6173.79	-1912.04	 5417.43
     21.3390	 6291.00	 6176.92	-1904.17	 5420.80
     21.3650	 6342.00	 6180.06	-1856.31	 5424.17
     21.3910	 6323.00	 6183.21	-1878.46	 5427.53
     21.4170	 6179.00	 6186.37	-2025.62	 5430.90
     21.4430	 6202.00	 6189.54	-2005.79	 5434.27
     21.4690	 6310.00	 6192.72	-1900.97	 5437.63
     21.4950	 6274.00	 6195.91	-1940.16	 5441.00
     21.5210	 6266.00	 6199.10	-1951.35	 5444.36
     21.5470	 6342.00	 6202.31	-1878.56	 5447.73
     21.5730	 6310.00	 6205.52	-1913.77	 5451.10
     21.5990	 6341.00	 6208.74	-1885.99	 5454.46
     21.6250	 6298.00	 6211.97	-1932.22	 5457.83
     21.6510	 6270.00	 6215.21	-1963.46	 5461.20
     21.6770	 6404.00	 6218.46	-1832.71	 5464.56
     21.7030	 6420.00	 6221.71	-1819.96	 5467.93
     21.7290	 6368.00	 6224.97	-1875.22	 5471.29
     21.7550	 6333.00	 6228.24	-1913.49	 5474.66
     21.7810	 6389.00	 6231.52	-1860.77	 5478.03
     21.8070	 6396.00	 6234.80	-1857.05	 5481.39
     21.8330	 6401.00	 6238.09	-1855.34	 5484.76
     21.8590	 6336.00	 6241.38	-1923.63	 5488.13
     21.8850	 6274.00	 6244.69	-1988.94	 5491.49
     21.9110	 6295.00	 6248.00	-1971.25	 5494.86
     21.9370	 6305.00	 6251.31	-1964.56	 5498.23
     21.9630	 6294.00	 6254.63	-1978.88	 5501.59
     21.9890	 6268.00	 6257.96	-2008.21	 5504.96
     22.0150	 6279.00	 6261.30	-2000.55	 5508.33
     22.0410	 6362.00	 6264.64	-1920.89	 5511.69
     22.0670	 6443.00	 6267.99	-1843.24	 5515.06
     22.0930	 6359.00	 6271.34	-1930.59	 5518.42
     22.1190	 6303.00	 6274.70	-1989.95	 5521.79
     22.1450	 6437.00	 6278.06	-1859.31	 5525.16
     22.1710	 6470.00	 6281.44	-1829.69	 5528.52
     22.1970	 6375.00	 6284.81	-1928.06	 5531.89
     22.2230	 6342.00	 6288.19	-1964.44	 5535.26
     22.2490	 6428.00	 6291.58	-1881.83	 5538.62
     22.2750	 6483.00	 6294.97	-1830.22	 5541.99
     22.3010	 6411.00	 6298.37	-1905.62	 5545.35
     22.3270	 6351.00	 6301.77	-1969.02	 5548.72
     22.3530	 6320.00	 6305.18	-2003.43	 5552.09
     22.3790	 6363.00	 6308.60	-1963.85	 5555.45
     22.4050	 6455.00	 6312.01	-1875.26	 5558.82
     22.4310	 6506.00	 6315.44	-1827.69	 5562.19
     22.4570	 6424.00	 6318.87	-1913.12	 5565.55
     22.4830	 6434.00	 6322.30	-1906.55	 5568.92
     22.5090	 6411.00	 6325.74	-1932.99	 5572.29
     22.5350	 6349.00	 6329.18	-1998.43	 5575.65
     22.5610	 6396.00	 6332.63	-1954.88	 5579.02
     22.5870	 6439.00	 6336.08	-1915.33	 5582.38
     22.6130	 6408.00	 6339.54	-1949.79	 5585.75
     22.6390	 6360.00	 6343.00	-2001.25	 5589.12
     22.6650	 6330.00	 6346.47	-2034.72	 5592.48
     22.6910	 6504.00	 6349.94	-1864.19	 5595.85
     22.7170	 6495.00	 6353.42	-1876.67	 5599.22
     22.7430	 6423.00	 6356.90	-1952.15	 5602.58
     22.7690	 6447.00	 6358.65	-1929.90	 5604.21
     22.7950	 6358.00	 6358.41	-2018.66	 5603.85
     22.8210	 6436.00	 6358.18	-1940.43	 5603.49
     22.8470	 6384.00	 6357.95	-1992.20	 5603.13
     22.8730	 6380.00	 6357.73	-1995.98	 5602.77
     22.8990	 6441.00	 6357.50	-1934.75	 5602.41
     22.9250	 6371.00	 6357.29	-2004.54	 5602.04
     22.9510	 6255.00	 6357.08	-2120.33	 5601.68
     22.9770	 6428.00	 6356.87	-1947.12	 5601.32
     23.0030	 6505.00	 6356.67	-1869.92	 5600.96
     23.0290	 6411.00	 6356.47	-1963.72	 5600.60
     23.0550	 6407.00	 6356.28	-1967.53	 5600.23
     23.0810	 6493.00	 6356.09	-1881.34	 5599.87
     23.1070	 6358.00	 6355.90	-2016.15	 5599.51
     23.1330	 6324.00	 6355.72	-2049.97	 5599.15
     23.1590	 6566.00	 6355.55	-1807.80	 5598.79
     23.1850	 6415.00	 6355.38	-1958.63	 5598.43
     23.2110	 6313.00	 6355.21	-2060.46	 5598.06
     23.2370	 6322.00	 6355.04	-2051.29	 5597.70
     23.2630	 6263.00	 6354.89	-2110.14	 5597.34
     23.2890	 6419.00	 6354.73	-1953.98	 5596.98
     23.3150	 6455.00	 6354.58	-1917.83	 5596.62
     23.3410	 6374.00	 6354.44	-1998.69	 5596.25
     23.3670	 6422.00	 6354.29	-1950.54	 5595.89
     23.3930	 6529.00	 6354.16	-1843.41	 5595.53
     23.4190	 6476.00	 6354.03	-1896.28	 5595.17
     23.4450	 6352.00	 6353.90	-2020.15	 5594.81
     23.4710	 6348.00	 6353.77	-2024.02	 5594.45
     23.4970	 6470.00	 6353.66	-1901.91	 5594.08
     23.5230	 6555.00	 6353.54	-1816.79	 5593.72
     23.5490	 6432.00	 6353.43	-1939.68	 5593.36
     23.5750	 6339.00	 6353.32	-2032.57	 5593.00
     23.6010	 6513.00	 6353.22	-1858.47	 5592.64
     23.6270	 6590.00	 6353.13	-1781.38	 5592.28
     23.6530	 6408.00	 6353.03	-1963.28	 5591.91
     23.6790	 6433.00	 6352.95	-1938.20	 5591.55
     23.7050	 6451.00	 6352.86	-1920.11	 5591.19
     23.7310	 6539.00	 6352.78	-1832.03	 5590.83
     23.7570	 6377.00	 6352.71	-1993.96	 5590.47
     23.7830	 6533.00	 6352.64	-1837.89	 5590.10
     23.8090	 6485.00	 6352.58	-1885.83	 5589.74
     23.8350	 6387.00	 6352.52	-1983.77	 5589.38
     23.8610	 6357.00	 6352.46	-2013.71	 5589.02
     23.8870	 6415.00	 6352.41	-1955.66	 5588.66
     23.9130	 6450.00	 6352.37	-1920.62	 5588.30
     23.9390	 6345.00	 6352.32	-2025.57	 5587.93
     23.9650	 6469.00	 6352.29	-1901.54	 5587.57
     23.9910	 6380.00	 6352.26	-1990.51	 5587.21
     24.0170	 6367.00	 6352.23	-2003.48	 5586.85
     24.0430	 6480.00	 6352.21	-1890.46	 5586.49
     24.0690	 6449.00	 6352.19	-1921.44	 5586.12
     24.0950	 6506.00	 6352.18	-1864.43	 5585.76
     24.1210	 6367.00	 6352.18	-2003.43	 5585.40
     24.1470	 6406.00	 6352.18	-1964.43	 5585.04
     24.1730	 6409.00	 6352.18	-1961.43	 5584.68
     24.1990	 6363.00	 6352.19	-2007.44	 5584.32
     24.2250	 6271.00	 6352.21	-2099.46	 5583.95
     24.2510	 6337.00	 6352.23	-2033.48	 5583.59
     24.2770	 6399.00	 6352.25	-1971.50	 5583.23
     24.3030	 6436.00	 6352.28	-1934.53	 5582.87
     24.3290	 6414.00	 6352.32	-1956.57	 5582.51
     24.3550	 6356.00	 6352.36	-2014.61	 5582.15
     24.3810	 6390.00	 6352.41	-1980.66	 5581.78
     24.4070	 6309.00	 6352.47	-2061.72	 5581.42
     24.4330	 6304.00	 6352.53	-2066.78	 5581.06
     24.4590	 6389.00	 6352.59	-1981.84	 5580.70
     24.4850	 6426.00	 6352.66	-1944.91	 5580.34
     24.5110	 6417.00	 6352.74	-1953.99	 5579.97
     24.5370	 6338.00	 6352.82	-2033.07	 5579.61
     24.5630	 6343.00	 6352.91	-2028.16	 5579.25
     24.5890	 6383.00	 6352.42	-1987.67	 5578.30
     24.6150	 6378.00	 6351.29	-1991.54	 5576.70
     24.6410	 6361.00	 6350.16	-2007.41	 5575.11
     24.6670	 6317.00	 6349.04	-2050.29	 5573.51
     24.6930	 6245.00	 6347.93	-2121.18	 5571.91
     24.7190	 6282.00	 6346.82	-2083.07	 5570.32
     24.7450	 6300.00	 6345.72	-2063.97	 5568.72
     24.7710	 6243.00	 6344.62	-2119.87	 5567.12
     24.7970	 6302.00	 6343.54	-2059.79	 5565.53
     24.8230	 6433.00	 6342.46	-1927.71	 5563.93
     24.8490	 6434.00	 6341.38	-1925.63	 5562.33
     24.8750	 6311.00	 6340.32	-2047.57	 5560.74
     24.9010	 6315.00	 6339.26	-2042.51	 5559.14
     24.9270	 6292.00	 6338.21	-2064.46	 5557.54
     24.9530	 6368.00	 6337.17	-1987.42	 5555.95
     24.9790	 6327.00	 6336.13	-2027.38	 5554.35
     25.0050	 6296.00	 6335.10	-2057.35	 5552.75
     25.0310	 6294.00	 6334.08	-2058.33	 5551.16
     25.0570	 6315.00	 6333.07	-2036.32	 5549.56
     25.0830	 6288.00	 6332.06	-2062.31	 5547.97
     25.1090	 6277.00	 6331.06	-2072.31	 5546.37
     25.1350	 6265.00	 6330.07	-2083.32	 5544.77
     25.1610	 6300.00	 6329.09	-2047.34	 5543.18
     25.1870	 6373.00	 6328.12	-1973.37	 5541.58
     25.2130	 6352.00	 6327.16	-1993.41	 5539.98
     25.2390	 6350.00	 6326.20	-1994.45	 5538.39
     25.2650	 6418.00	 6325.26	-1925.51	 5536.79
     25.2910	 6295.00	 6324.32	-2047.57	 5535.19
     25.3170	 6309.00	 6323.39	-2032.64	 5533.60
     25.3430	 6315.00	 6322.47	-2025.72	 5532.00
     25.3690	 6427.00	 6321.57	-1912.82	 5530.40
     25.3950	 6436.00	 6320.67	-1902.92	 5528.81
     25.4210	 6342.00	 6319.78	-1996.03	 5527.21
     25.4470	 6325.00	 6318.90	-2012.15	 5525.61
     25.4730	 6338.00	 6318.03	-1998.28	 5524.02
     25.4990	 6478.00	 6317.17	-1857.42	 5522.42
     25.5250	 6414.00	 6316.32	-1920.57	 5520.82
     25.5510	 6379.00	 6315.48	-1954.73	 5519.23
     25.5770	 6299.00	 6314.65	-2033.90	 5517.63
     25.6030	 6318.00	 6313.84	-2014.09	 5516.03
     25.6290	 6295.00	 6313.03	-2036.28	 5514.44
     25.6550	 6338.00	 6312.24	-1992.49	 5512.84
     25.6810	 6356.00	 6311.46	-1973.71	 5511.24
     25.7070	 6285.00	 6310.69	-2043.94	 5509.65
     25.7330	 6343.00	 6309.93	-1985.18	 5508.05
     25.7590	 6158.00	 6309.18	-2169.43	 5506.45
     25.7850	 6188.00	 6308.45	-2138.70	 5504.86
     25.8110	 6106.00	 6307.73	-2219.98	 5503.26
     25.8370	 6160.00	 6307.02	-2165.27	 5501.67
     25.8630	 6374.00	 6306.33	-1950.58	 5500.07
     25.8890	 6285.00	 6305.64	-2038.89	 5498.47
     25.9150	 6440.00	 6304.98	-1883.23	 5496.88
     25.9410	 6437.00	 6304.32	-1885.57	 5495.28
     25.9670	 6340.00	 6303.68	-1981.93	 5493.68
     25.9930	 6442.00	 6303.20	-1879.45	 5492.23
     26.0190	 6353.00	 6302.85	-1968.10	 5490.89
     26.0450	 6354.00	 6302.51	-1966.76	 5489.55
     26.0710	 6459.00	 6302.19	-1861.44	 5488.21
     26.0970	 6213.00	 6301.88	-2107.13	 5486.87
     26.1230	 6381.00	 6301.59	-1938.84	 5485.53
     26.1490	 6320.00	 6301.32	-1999.57	 5484.19
     26.1750	 6315.00	 6301.06	-2004.31	 5482.85
     26.2010	 6324.00	 6300.82	-1995.07	 5481.51
     26.2270	 6382.00	 6300.60	-1936.85	 5480.17
     26.2530	 6390.00	 6300.39	-1928.64	 5478.83
     26.2790	 6340.00	 6300.20	-1978.45	 5477.50
     26.3050	 6305.00	 6300.03	-2013.28	 5476.16
     26.3310	 6380.00	 6299.88	-1938.13	 5474.82
     26.3570	 6290.00	 6299.75	-2028.00	 5473.48
     26.3830	 6310.00	 6299.64	-2007.89	 5472.14
     26.4090	 6371.00	 6299.55	-1946.80	 5470.80
     26.4350	 6289.00	 6299.48	-2028.73	 5469.46
     26.4610	 6197.00	 6299.43	-2120.68	 5468.12
     26.4870	 6198.00	 6299.40	-2119.65	 5466.78
     26.5130	 6330.00	 6299.40	-1987.65	 5465.44
     26.5390	 6265.00	 6299.42	-2052.67	 5464.10
     26.5650	 6284.00	 6299.46	-2033.71	 5462.76
     26.5910	 6256.00	 6299.52	-2061.77	 5461.42
     26.6170	 6349.00	 6299.61	-1968.86	 5460.08
     26.6430	 6296.00	 6299.72	-2021.97	 5458.74
     26.6690	 6250.00	 6299.85	-2068.10	 5457.41
     26.6950	 6309.00	 6300.02	-2009.27	 5456.07
     26.7210	 6287.00	 6300.20	-2031.45	 5454.73
     26.7470	 6209.00	 6300.42	-2109.67	 5453.39
     26.7730	 6276.00	 6300.66	-2042.91	 5452.05
     26.7990	 6255.00	 6300.93	-2064.18	 5450.71
     26.8250	 6285.00	 6301.23	-2034.48	 5449.37
     26.8510	 6237.00	 6301.56	-2082.81	 5448.03
     26.8770	 6189.00	 6301.92	-2131.17	 5446.69
     26.9030	 6149.00	 6302.32	-2171.57	 5445.35
     26.9290	 6214.00	 6302.74	-2106.99	 5444.01
     26.9550	 6238.00	 6303.19	-2083.44	 5442.67
     26.9810	 6159.00	 6303.68	-2162.93	 5441.33
     27.0070	 6235.00	 6304.21	-2087.46	 5439.99
     27.0330	 6263.00	 6304.76	-2060.01	 5438.65
     27.0590	 6166.00	 6305.36	-2157.61	 5437.31
     27.0850	 6150.00	 6305.99	-2174.24	 5435.98
     27.1110	 6272.00	 6306.66	-2052.91	 5434.64
     27.1370	 6309.00	 6307.37	-2016.62	 5433.30
     27.1630	 6291.00	 6308.11	-2035.36	 5431.96
     27.1890	 6285.00	 6308.90	-2042.15	 5430.62
     27.2150	 6223.00	 6309.73	-2104.98	 5429.28
     27.2410	 6136.00	 6310.60	-2192.85	 5427.94
     27.2670	 6140.00	 6311.52	-2189.77	 5426.60
     27.2930	 6154.00	 6312.48	-2176.73	 5425.26
     27.3190	 6124.00	 6313.49	-2207.74	 5423.92
     27.3450	 6193.00	 6314.55	-2139.80	 5422.58
     27.3710	 6182.00	 6315.65	-2151.90	 5421.24
     27.3970	 6126.00	 6316.81	-2209.06	 5419.90
     27.4230	 6236.00	 6318.01	-2100.26	 5418.56
     27.4490	 6274.00	 6319.27	-2063.52	 5417.23
     27.4750	 6176.00	 6320.59	-2162.84	 5415.89
     27.5010	 6115.00	 6321.96	-2225.21	 5414.55
     27.5270	 6211.00	 6323.39	-2130.64	 5413.21
     27.5530	 6263.00	 6324.87	-2080.12	 5411.87
     27.5790	 6179.00	 6326.42	-2165.67	 5410.53
     27.6050	 6223.00	 6328.03	-2123.28	 5409.19
     27.6310	 6189.00	 6329.71	-2158.96	 5407.85
     27.6570	 6227.00	 6331.45	-2122.70	 5406.51
     27.6830	 6340.00	 6333.26	-2011.51	 5405.17
     27.7090	 6282.00	 6335.13	-2071.38	 5403.83
     27.7350	 6205.00	 6337.08	-2150.33	 5402.49
     27.7610	 6180.00	 6339.11	-2177.36	 5401.15
     27.7870	 6155.00	 6341.21	-2204.46	 5399.81
     27.8130	 6216.00	 6343.38	-2145.63	 5398.47
     27.8390	 6319.00	 6345.64	-2044.89	 5397.14
     27.8650	 6202.00	 6347.98	-2164.23	 5395.80
     27.8910	 6130.00	 6350.41	-2238.66	 5394.46
     27.9170	 6136.00	 6352.92	-2235.17	 5393.12
     27.9430	 6148.00	 6355.52	-2225.77	 5391.78
     27.9690	 6191.00	 6358.22	-2185.47	 5390.44
     27.9950	 6309.00	 6361.01	-2070.26	 5389.10
     28.0210	 6195.00	 6363.90	-2187.15	 5387.76
     28.0470	 6226.00	 6366.89	-2159.14	 5386.42
     28.0730	 6083.00	 6369.98	-2305.23	 5385.08
     28.0990	 6216.00	 6373.18	-2175.43	 5383.74
     28.1250	 6141.00	 6376.49	-2253.74	 5382.40
     28.1510	 6263.00	 6378.70	-2133.95	 5379.84
     28.1770	 6263.00	 6378.93	-2134.18	 5375.20
     28.2030	 6287.00	 6379.28	-2110.53	 5370.55
     28.2290	 6310.00	 6379.76	-2088.01	 5365.91
     28.2550	 6205.00	 6380.36	-2193.61	 5361.26
     28.2810	 6334.00	 6381.10	-2065.35	 5356.62
     28.3070	 6193.00	 6381.97	-2207.22	 5351.97
     28.3330	 6284.00	 6382.97	-2117.22	 5347.33
     28.3590	 6197.00	 6384.12	-2205.37	 5342.68
     28.3850	 6304.00	 6385.41	-2099.66	 5338.04
     28.4110	 6220.00	 6386.85	-2185.10	 5333.40
     28.4370	 6362.00	 6388.44	-2044.69	 5328.75
     28.4630	 6284.00	 6390.20	-2124.45	 5324.11
     28.4890	 6310.00	 6392.11	-2100.36	 5319.46
     28.5150	 6368.00	 6394.19	-2044.44	 5314.82
     28.5410	 6439.00	 6396.44	-1975.69	 5310.17
     28.5670	 6386.00	 6398.86	-2031.11	 5305.53
     28.5930	 6591.00	 6401.46	-1828.71	 5300.88
     28.6190	 6706.00	 6404.24	-1716.49	 5296.24
     28.6450	 6685.00	 6407.21	-1740.46	 5291.59
     28.6710	 6521.00	 6410.38	-1907.63	 5286.95
     28.6970	 6398.00	 6413.73	-2033.98	 5282.30
     28.7230	 6534.00	 6417.29	-1901.54	 5277.66
     28.7490	 6398.00	 6421.05	-2041.30	 5273.01
     28.7750	 6363.00	 6425.01	-2080.26	 5268.37
     28.8010	 6332.00	 6429.19	-2115.44	 5263.72
     28.8270	 6286.00	 6433.58	-2165.83	 5259.08
     28.8530	 6340.00	 6438.19	-2116.44	 5254.44
     28.8790	 6457.00	 6443.01	-2004.26	 5249.79
     28.9050	 6368.00	 6448.06	-2098.31	 5245.15
     28.9310	 6466.00	 6453.33	-2005.58	 5240.50
     28.9570	 6602.00	 6458.84	-1875.09	 5235.86
     28.9830	 6383.00	 6464.56	-2099.81	 5231.21
     29.0090	 6397.00	 6470.52	-2091.77	 5226.57
     29.0350	 6395.00	 6476.70	-2099.95	 5221.92
     29.0610	 6468.00	 6483.12	-2033.37	 5217.28
     29.0870	 6375.00	 6489.75	-2133.00	 5212.63
     29.1130	 6367.00	 6496.61	-2147.86	 5207.99
     29.1390	 6432.00	 6503.70	-2089.95	 5203.34
     29.1650	 6445.00	 6510.99	-2084.24	 5198.70
     29.1910	 6369.00	 6518.50	-2167.75	 5194.05
     29.2170	 6407.00	 6526.21	-2137.46	 5189.41
     29.2430	 6474.00	 6534.12	-2078.37	 5184.76
     29.2690	 6537.00	 6542.21	-2023.46	 5180.12
     29.2950	 6568.00	 6550.48	-2000.73	 5175.48
     29.3210	 6549.00	 6558.91	-2028.16	 5170.83
     29.3470	 6569.00	 6567.48	-2016.73	 5166.19
     29.3730	 6543.00	 6576.19	-2051.44	 5161.54
     29.3990	 6533.00	 6585.01	-2070.26	 5156.90
     29.4250	 6574.00	 6593.92	-2038.17	 5152.25
     29.4510	 6657.00	 6602.89	-1964.14	 5147.61
     29.4770	 6601.00	 6611.92	-2029.17	 5142.96
     29.5030	 6607.00	 6620.95	-2032.20	 5138.32
     29.5290	 6669.00	 6629.98	-1979.23	 5133.67
     29.5550	 6578.00	 6638.96	-2079.21	 5129.03
     29.5810	 6530.00	 6647.86	-2136.11	 5124.38
     29.6070	 6600.00	 6656.65	-2074.90	 5119.74
     29.6330	 6661.00	 6665.29	-2022.54	 5115.09
     29.6590	 6610.00	 6673.73	-2081.98	 5110.45
     29.6850	 6630.00	 6681.95	-2070.20	 5105.80
     29.7110	 6661.00	 6689.89	-2047.14	 5101.16
     29.7370	 6676.00	 6697.51	-2039.76	 5096.51
     29.7630	 6643.00	 6704.76	-2080.01	 5091.87
     29.7890	 6702.00	 6711.61	-2027.86	 5087.23
     29.8150	 6680.00	 6718.01	-2056.26	 5082.58
     29.8410	 6588.00	 6723.90	-2154.15	 5077.94
     29.8670	 6730.00	 6729.25	-2017.50	 5073.29
     29.8930	 6831.00	 6734.02	-1921.27	 5068.65
     29.9190	 6750.00	 6738.16	-2006.41	 5064.00
     29.9450	 6682.00	 6741.63	-2077.88	 5059.36
     29.9710	 6706.00	 6744.40	-2056.65	 5054.71
     29.9970	 6755.00	 6746.43	-2009.68	 5050.07
     30.0230	 6759.00	 6747.69	-2006.94	 5045.42
     30.0490	 6755.00	 6748.16	-2011.41	 5040.78
     30.0750	 6777.00	 6747.82	-1989.07	 5036.13
     30.1010	 6816.00	 6746.65	-1948.90	 5031.49
     30.1270	 6780.00	 6744.64	-1982.89	 5026.84
     30.1530	 6786.00	 6741.78	-1974.03	 5022.20
     30.1790	 6844.00	 6738.07	-1912.32	 5017.55
     30.2050	 6889.00	 6733.51	-1862.76	 5012.91
     30.2310	 6994.00	 6728.12	-1752.37	 5008.27
     30.2570	 6916.00	 6721.91	-1824.16	 5003.62
     30.2830	 6865.00	 6714.89	-1868.14	 4998.98
     30.3090	 6831.00	 6707.09	-1894.34	 4994.33
     30.3350	 6783.00	 6698.55	-1933.80	 4989.69
     30.3610	 6746.00	 6689.28	-1961.53	 4985.04
     30.3870	 6757.00	 6679.33	-1940.58	 4980.40
     30.4130	 6724.00	 6668.73	-1962.98	 4975.75
     30.4390	 6840.00	 6657.52	-1835.77	 4971.11
     30.4650	 6692.00	 6645.76	-1972.01	 4966.46
     30.4910	 6780.00	 6633.47	-1871.72	 4961.82
     30.5170	 6740.00	 6620.71	-1898.96	 4957.17
     30.5430	 6757.00	 6607.53	-1868.78	 4952.53
     30.5690	 6740.00	 6593.96	-1872.21	 4947.88
     30.5950	 6580.00	 6580.06	-2018.31	 4943.24
     30.6210	 6620.00	 6565.87	-1964.12	 4938.59
     30.6470	 6637.00	 6551.43	-1932.68	 4933.95
     30.6730	 6725.00	 6536.79	-1830.04	 4929.31
     30.6990	 6699.00	 6521.99	-1841.24	 4924.66
     30.7250	 6615.00	 6507.06	-1910.31	 4920.02
     30.7510	 6558.00	 6492.06	-1952.31	 4915.37
     30.7770	 6515.00	 6477.00	-1980.25	 4910.73
     30.8030	 6542.00	 6461.93	-1938.18	 4906.08
     30.8290	 6666.00	 6446.88	-1799.13	 4901.44
     30.8550	 6635.00	 6431.88	-1815.13	 4896.79
     30.8810	 6523.00	 6416.95	-1912.20	 4892.15
     30.9070	 6463.00	 6402.11	-1957.36	 4887.50
     30.9330	 6462.00	 6387.40	-1943.65	 4882.86
     30.9590	 6508.00	 6372.84	-1883.09	 4878.21
     30.9850	 6359.00	 6358.43	-2017.68	 4873.57
     31.0110	 6442.00	 6344.20	-1920.45	 4868.92
     31.0370	 6434.00	 6330.17	-1914.42	 4864.28
     31.0630	 6344.00	 6316.34	-1990.59	 4859.63
     31.0890	 6498.00	 6302.73	-1822.98	 4854.99
     31.1150	 6407.00	 6289.35	-1900.60	 4850.34
     31.1410	 6337.00	 6276.21	-1957.46	 4845.70
     31.1670	 6355.00	 6263.31	-1926.56	 4841.06
     31.1930	 6322.00	 6250.67	-1946.92	 4836.41
     31.2190	 6226.00	 6238.27	-2030.52	 4831.77
     31.2450	 6263.00	 6226.14	-1981.39	 4827.12
     31.2710	 6254.00	 6214.28	-1978.53	 4822.48
     31.2970	 6331.00	 6202.67	-1889.92	 4817.83
     31.3230	 6246.00	 6191.34	-1963.59	 4813.19
     31.3490	 6181.00	 6180.27	-2017.52	 4808.54
     31.3750	 6140.00	 6169.48	-2047.73	 4803.90
     31.4010	 6124.00	 6158.95	-2053.20	 4799.25
     31.4270	 6176.00	 6148.69	-1990.94	 4794.61
     31.4530	 6274.00	 6138.70	-1882.95	 4789.96
     31.4790	 6077.00	 6128.97	-2070.22	 4785.32
     31.5050	 6110.00	 6119.51	-2027.76	 4780.67
     31.5310	 6129.00	 6110.31	-1999.56	 4776.03
     31.5570	 6133.00	 6101.37	-1986.62	 4771.38
     31.5830	 6141.00	 6092.69	-1969.94	 4766.74
     31.6090	 6083.00	 6084.26	-2019.51	 4762.10
     31.6350	 6065.00	 6076.09	-2029.34	 4757.45
     31.6610	 5913.00	 6068.17	-2173.42	 4752.81
     31.6870	 6094.00	 6060.50	-1984.75	 4748.16
     31.7130	 6143.00	 6053.07	-1928.32	 4743.52
     31.7390	 6049.00	 6045.89	-2015.14	 4738.87
     31.7650	 6032.00	 6038.95	-2025.20	 4734.23
     31.7910	 6117.00	 6032.25	-1933.50	 4729.58
     31.8170	 6078.00	 6025.79	-1966.04	 4724.94
     31.8430	 5953.00	 6019.56	-2084.81	 4720.29
     31.8690	 6086.00	 6013.56	-1945.81	 4715.65
     31.8950	 6087.00	 6007.79	-1939.04	 4711.00
     31.9210	 5993.00	 6002.25	-2027.50	 4706.36
     31.9470	 5946.00	 5996.94	-2069.19	 4701.71
     31.9730	 6012.00	 5991.85	-1998.10	 4697.07
     31.9990	 5904.00	 5986.98	-2101.23	 4692.42
     32.0250	 5954.00	 5982.34	-2046.59	 4687.78
     32.0510	 5950.00	 5977.91	-2046.16	 4683.13
     32.0770	 5973.00	 5973.71	-2018.96	 4678.49
     32.1030	 5903.00	 5969.72	-2084.97	 4673.85
     32.1290	 5847.00	 5965.95	-2137.20	 4669.20
     32.1550	 5811.00	 5962.39	-2169.64	 4664.56
     32.1810	 5951.00	 5959.05	-2026.30	 4659.91
     32.2070	 5915.00	 5955.93	-2059.18	 4655.27
     32.2330	 5905.00	 5953.02	-2066.27	 4650.62
     32.2590	 5885.00	 5950.33	-2083.58	 4645.98
     32.2850	 5883.00	 5947.85	-2083.10	 4641.33
     32.3110	 5952.00	 5945.58	-2011.83	 4636.69
     32.3370	 5838.00	 5943.54	-2123.79	 4632.04
     32.3630	 5813.00	 5941.71	-2146.96	 4627.40
     32.3890	 5818.00	 5940.09	-2140.34	 4622.75
     32.4150	 5761.00	 5938.70	-2195.95	 4618.11
     32.4410	 5777.00	 5937.52	-2178.77	 4613.46
     32.4670	 5788.00	 5936.57	-2166.82	 4608.82
     32.4930	 5825.00	 5935.84	-2129.09	 4604.17
     32.5190	 5859.00	 5934.76	-2094.01	 4598.96
     32.5450	 5874.00	 5931.46	-2075.71	 4591.30
     32.5710	 5858.00	 5928.39	-2088.64	 4583.64
     32.5970	 5787.00	 5925.56	-2156.81	 4575.98
     32.6230	 5839.00	 5922.95	-2102.20	 4568.32
     32.6490	 5871.00	 5920.58	-2067.83	 4560.66
     32.6750	 5810.00	 5918.45	-2126.70	 4553.00
     32.7010	 5779.00	 5916.56	-2155.81	 4545.34
     32.7270	 5701.00	 5914.92	-2232.17	 4537.68
     32.7530	 5761.00	 5913.52	-2170.77	 4530.02
     32.7790	 5812.00	 5912.38	-2118.63	 4522.35
     32.8050	 5748.00	 5911.50	-2181.75	 4514.69
     32.8310	 5797.00	 5910.88	-2132.12	 4507.03
     32.8570	 5773.00	 5910.52	-2155.77	 4499.37
     32.8830	 5807.00	 5910.43	-2121.68	 4491.71
     32.9090	 5922.00	 5910.62	-2006.87	 4484.05
     32.9350	 5891.00	 5911.08	-2038.33	 4476.39
     32.9610	 5915.00	 5911.84	-2015.09	 4468.73
     32.9870	 5865.00	 5912.88	-2066.13	 4461.07
     33.0130	 5924.00	 5914.23	-2008.48	 4453.41
     33.0390	 5824.00	 5915.88	-2110.12	 4445.75
     33.0650	 5836.00	 5917.83	-2100.08	 4438.09
     33.0910	 5880.00	 5920.11	-2058.36	 4430.43
     33.1170	 5786.00	 5922.71	-2154.96	 4422.77
     33.1430	 5817.00	 5925.64	-2126.89	 4415.10
     33.1690	 5837.00	 5928.91	-2110.16	 4407.44
     33.1950	 5820.00	 5932.52	-2130.77	 4399.78
     33.2210	 5826.00	 5936.50	-2128.75	 4392.12
     33.2470	 5935.00	 5940.83	-2024.08	 4384.46
     33.2730	 6071.00	 5945.54	-1892.79	 4376.80
     33.2990	 5994.00	 5950.64	-1974.89	 4369.14
     33.3250	 5934.00	 5956.12	-2040.37	 4361.48
     33.3510	 5893.00	 5962.00	-2087.25	 4353.82
     33.3770	 5957.00	 5968.30	-2029.55	 4346.16
     33.4030	 5935.00	 5975.02	-2058.27	 4338.50
     33.4290	 5858.00	 5982.17	-2142.42	 4330.84
     33.4550	 5909.00	 5989.77	-2099.02	 4323.18
     33.4810	 5969.00	 5997.82	-2047.07	 4315.52
     33.5070	 5969.00	 6006.35	-2055.60	 4307.86
     33.5330	 6017.00	 6015.35	-2016.60	 4300.19
     33.5590	 5893.00	 6024.84	-2150.09	 4292.53
     33.5850	 5850.00	 6034.84	-2203.09	 4284.87
     33.6110	 5886.00	 6045.36	-2177.61	 4277.21
     33.6370	 6025.00	 6056.41	-2049.66	 4269.55
     33.6630	 6007.00	 6068.01	-2079.26	 4261.89
     33.6890	 6056.00	 6080.16	-2042.41	 4254.23
     33.7150	 6110.00	 6092.90	-2001.15	 4246.57
     33.7410	 6142.00	 6106.22	-1982.47	 4238.91
     33.7670	 5945.00	 6120.15	-2193.40	 4231.25
     33.7930	 5993.00	 6134.69	-2159.94	 4223.59
     33.8190	 6091.00	 6149.88	-2077.13	 4215.93
     33.8450	 6120.00	 6165.71	-2063.96	 4208.27
     33.8710	 6067.00	 6182.22	-2133.47	 4200.61
     33.8970	 5981.00	 6199.40	-2236.65	 4192.95
     33.9230	 6132.00	 6217.29	-2103.54	 4185.28
     33.9490	 6327.00	 6235.89	-1927.14	 4177.62
     33.9750	 6115.00	 6255.22	-2158.47	 4169.96
     34.0010	 6298.00	 6275.30	-1995.55	 4162.30
     34.0270	 6165.00	 6296.14	-2149.39	 4154.64
     34.0530	 6302.00	 6317.76	-2034.01	 4146.98
     34.0790	 6410.00	 6340.17	-1948.42	 4139.32
     34.1050	 6388.00	 6363.39	-1993.64	 4131.66
     34.1310	 6342.00	 6387.43	-2063.68	 4124.00
     34.1570	 6402.00	 6412.31	-2028.56	 4116.34
     34.1830	 6382.00	 6438.03	-2074.28	 4108.68
     34.2090	 6584.00	 6464.61	-1898.86	 4101.02
     34.2350	 6589.00	 6492.06	-1921.31	 4093.36
     34.2610	 6630.00	 6520.39	-1908.64	 4085.70
     34.2870	 6557.00	 6549.60	-2010.85	 4078.03
     34.3130	 6542.00	 6579.69	-2055.94	 4070.37
     34.3390	 6704.00	 6610.68	-1924.93	 4062.71
     34.3650	 6597.00	 6642.57	-2063.82	 4055.05
     34.3910	 6699.00	 6675.34	-1994.59	 4047.39
     34.4170	 6704.00	 6708.99	-2023.24	 4039.73
     34.4430	 6778.00	 6743.53	-1983.78	 4032.07
     34.4690	 6854.00	 6778.93	-1943.18	 4024.41
     34.4950	 6843.00	 6815.18	-1990.43	 4016.75
     34.5210	 6832.00	 6852.27	-2038.52	 4009.09
     34.5470	 6894.00	 6890.16	-2014.41	 4001.43
     34.5730	 7042.00	 6928.82	-1905.07	 3993.77
     34.5990	 7203.00	 6968.23	-1783.48	 3986.11
     34.6250	 7268.00	 7008.34	-1758.59	 3978.45
     34.6510	 7154.00	 7049.10	-1913.35	 3970.79
     34.6770	 7168.00	 7090.46	-1940.71	 3963.12
     34.7030	 7255.00	 7132.35	-1895.60	 3955.46
     34.7290	 7344.00	 7174.72	-1848.97	 3947.80
     34.7550	 7428.00	 7217.49	-1807.74	 3940.14
     34.7810	 7528.00	 7260.56	-1750.81	 3932.48
     34.8070	 7464.00	 7303.84	-1858.09	 3924.82
     34.8330	 7496.00	 7347.25	-1869.50	 3917.16
     34.8590	 7621.00	 7390.66	-1787.91	 3909.50
     34.8850	 7559.00	 7433.96	-1893.21	 3901.84
     34.9110	 7552.00	 7477.01	-1943.26	 3894.18
     34.9370	 7684.00	 7519.70	-1853.95	 3886.52
     34.9630	 7795.00	 7561.86	-1785.11	 3878.86
     34.9890	 7832.00	 7603.36	-1789.61	 3871.20
     35.0150	 7848.00	 7644.02	-1814.27	 3863.54
     35.0410	 7874.00	 7683.69	-1827.94	 3855.88
     35.0670	 7932.00	 7722.20	-1808.45	 3848.21
     35.0930	 7969.00	 7759.36	-1808.61	 3840.55
     35.1190	 7995.00	 7795.55	-1818.80	 3832.89
     35.1450	 7941.00	 7829.50	-1906.75	 3825.23
     35.1710	 7967.00	 7861.57	-1912.82	 3817.57
     35.1970	 8042.00	 7891.58	-1867.83	 3809.91
     35.2230	 8018.00	 7919.35	-1919.60	 3802.25
     35.2490	 7969.00	 7944.71	-1993.96	 3794.59
     35.2750	 7975.00	 7967.77	-2011.02	 3786.93
     35.3010	 8073.00	 7987.83	-1933.08	 3779.27
     35.3270	 8038.00	 8005.00	-1985.25	 3771.61
     35.3530	 7990.00	 8019.16	-2047.41	 3763.95
     35.3790	 7980.00	 8030.17	-2068.42	 3756.29
     35.4050	 8033.00	 8037.95	-2023.20	 3748.63
     35.4310	 8047.00	 8042.39	-2013.64	 3740.97
     35.4570	 7954.00	 8043.42	-2107.67	 3733.30
     35.4830	 8011.00	 8041.00	-2048.25	 3725.64
     35.5090	 8000.00	 8035.09	-2053.34	 3717.98
     35.5350	 7910.00	 8025.68	-2133.93	 3710.32
     35.5610	 7859.00	 8012.78	-2172.03	 3702.66
     35.5870	 7913.00	 7996.41	-2101.66	 3695.00
     35.6130	 8023.00	 7976.63	-1971.88	 3687.34
     35.6390	 7903.00	 7953.50	-2068.75	 3679.68
     35.6650	 7940.00	 7927.10	-2005.35	 3672.02
     35.6910	 7785.00	 7897.55	-2130.80	 3664.36
     35.7170	 7751.00	 7864.97	-2132.22	 3656.70
     35.7430	 7774.00	 7829.47	-2073.72	 3649.04
     35.7690	 7665.00	 7791.21	-2144.46	 3641.38
     35.7950	 7587.00	 7750.35	-2181.60	 3633.72
     35.8210	 7556.00	 7707.05	-2169.30	 3626.06
     35.8470	 7540.00	 7661.48	-2139.73	 3618.39
     35.8730	 7435.00	 7613.82	-2197.07	 3610.73
     35.8990	 7439.00	 7564.24	-2143.49	 3603.07
     35.9250	 7472.00	 7512.93	-2059.18	 3595.41
     35.9510	 7324.00	 7460.06	-2154.31	 3587.75
     35.9770	 7302.00	 7405.82	-2122.07	 3580.09
     36.0030	 7360.00	 7350.38	-2008.63	 3572.43
     36.0290	 7272.00	 7293.92	-2040.17	 3564.77
     36.0550	 7281.00	 7236.60	-1973.85	 3557.11
     36.0810	 7050.00	 7178.57	-2146.82	 3549.45
     36.1070	 7031.00	 7119.98	-2107.23	 3541.79
     36.1330	 7003.00	 7061.01	-2076.26	 3534.13
     36.1590	 7010.00	 7001.75	-2010.00	 3526.47
     36.1850	 6905.00	 6942.36	-2055.61	 3518.80
     36.2110	 6825.00	 6882.95	-2076.20	 3511.14
     36.2370	 6662.00	 6823.63	-2179.88	 3503.48
     36.2630	 6705.00	 6764.50	-2077.75	 3495.82
     36.2890	 6730.00	 6705.66	-1993.91	 3488.16
     36.3150	 6620.00	 6647.19	-2045.44	 3480.50
     36.3410	 6629.00	 6589.18	-1978.43	 3472.84
     36.3670	 6366.00	 6531.68	-2183.93	 3465.18
     36.3930	 6340.00	 6474.77	-2153.02	 3457.52
     36.4190	 6154.00	 6418.49	-2282.74	 3449.86
     36.4450	 6245.00	 6362.90	-2136.15	 3442.20
     36.4710	 6243.00	 6308.03	-2083.28	 3434.54
     36.4970	 6134.00	 6253.93	-2138.18	 3426.88
     36.5230	 6168.00	 6200.62	-2050.87	 3419.22
     36.5490	 6087.00	 6148.14	-2079.39	 3411.56
     36.5750	 5959.00	 6096.48	-2155.73	 3403.90
     36.6010	 5949.00	 6045.69	-2114.94	 3396.23
     36.6270	 5971.00	 5995.76	-2043.01	 3388.57
     36.6530	 5862.00	 5946.71	-2102.96	 3380.91
     36.6790	 5803.00	 5898.53	-2113.78	 3373.25
     36.7050	 5747.00	 5851.24	-2122.49	 3365.59
     36.7310	 5803.00	 5804.84	-2020.09	 3357.93
     36.7570	 5689.00	 5759.31	-2088.56	 3350.27
     36.7830	 5749.00	 5714.65	-1983.90	 3342.61
     36.8090	 5692.00	 5670.87	-1997.12	 3334.95
     36.8350	 5696.00	 5627.94	-1950.19	 3327.29
     36.8610	 5649.00	 5585.86	-1955.11	 3319.63
     36.8870	 5587.00	 5544.62	-1975.87	 3311.97
     36.9130	 5546.00	 5504.20	-1976.45	 3304.31
     36.9390	 5585.00	 5464.60	-1897.85	 3296.65
     36.9650	 5533.00	 5425.80	-1911.05	 3288.99
     36.9910	 5496.00	 5387.77	-1910.02	 3281.32
     37.0170	 5451.00	 5350.52	-1917.77	 3273.66
     37.0430	 5427.00	 5314.02	-1905.27	 3266.00
     37.0690	 5515.00	 5278.25	-1781.50	 3258.34
     37.0950	 5481.00	 5243.20	-1780.45	 3250.68
     37.1210	 5435.00	 5208.86	-1792.11	 3243.02
     37.1470	 5302.00	 5175.21	-1891.46	 3235.36
     37.1730	 5300.00	 5142.22	-1860.47	 3227.70
     37.1990	 5343.00	 5109.89	-1785.14	 3220.04
     37.2250	 5192.00	 5078.20	-1904.45	 3212.38
     37.2510	 5097.00	 5047.13	-1968.38	 3204.72
     37.2770	 5125.00	 5016.66	-1909.91	 3197.06
     37.3030	 5069.00	 4986.79	-1936.04	 3189.40
     37.3290	 5118.00	 4957.49	-1857.74	 3181.73
     37.3550	 5110.00	 4928.75	-1837.00	 3174.07
     37.3810	 5044.00	 4900.55	-1874.80	 3166.41
     37.4070	 5005.00	 4875.68	-1888.93	 3161.55
     37.4330	 4899.00	 4854.34	-1973.59	 3159.70
     37.4590	 4889.00	 4833.50	-1962.75	 3157.85
     37.4850	 4890.00	 4813.15	-1941.40	 3156.00
     37.5110	 4872.00	 4793.27	-1939.52	 3154.16
     37.5370	 4811.00	 4773.84	-1981.09	 3152.31
     37.5630	 4817.00	 4754.87	-1956.12	 3150.46
     37.5890	 4778.00	 4736.33	-1976.58	 3148.61
     37.6150	 4766.00	 4718.21	-1970.46	 3146.76
     37.6410	 4697.00	 4700.51	-2021.76	 3144.91
     37.6670	 4615.00	 4683.20	-2086.45	 3143.07
     37.6930	 4641.00	 4666.27	-2043.52	 3141.22
     37.7190	 4538.00	 4649.73	-2129.98	 3139.37
     37.7450	 4544.00	 4633.55	-2107.80	 3137.52
     37.7710	 4573.00	 4617.72	-2062.97	 3135.67
     37.7970	 4509.00	 4602.24	-2111.49	 3133.83
     37.8230	 4538.00	 4587.09	-2067.34	 3131.98
     37.8490	 4468.00	 4572.27	-2122.52	 3130.13
     37.8750	 4385.00	 4557.76	-2191.01	 3128.28
     37.9010	 4370.00	 4543.56	-2191.81	 3126.43
     37.9270	 4404.00	 4529.65	-2143.90	 3124.59
     37.9530	 4458.00	 4516.04	-2076.29	 3122.74
     37.9790	 4416.00	 4502.71	-2104.96	 3120.89
     38.0050	 4372.00	 4489.66	-2135.91	 3119.04
     38.0310	 4352.00	 4476.87	-2143.12	 3117.19
     38.0570	 4323.00	 4464.33	-2159.58	 3115.35
     38.0830	 4267.00	 4452.05	-2203.30	 3113.50
     38.1090	 4308.00	 4440.02	-2150.27	 3111.65
     38.1350	 4390.00	 4428.22	-2056.47	 3109.80
     38.1610	 4313.00	 4416.65	-2121.90	 3107.95
     38.1870	 4242.00	 4405.31	-2181.56	 3106.10
     38.2130	 4409.00	 4394.18	-2003.43	 3104.26
     38.2390	 4350.00	 4383.27	-2051.52	 3102.41
     38.2650	 4334.00	 4372.56	-2056.81	 3100.56
     38.2910	 4240.00	 4362.06	-2140.31	 3098.71
     38.3170	 4243.00	 4351.75	-2127.00	 3096.86
     38.3430	 4172.00	 4341.63	-2187.88	 3095.02
     38.3690	 4244.00	 4331.70	-2105.95	 3093.17
     38.3950	 4283.00	 4321.94	-2057.19	 3091.32
     38.4210	 4289.00	 4312.36	-2041.61	 3089.47
     38.4470	 4250.00	 4302.96	-2071.21	 3087.62
     38.4730	 4159.00	 4293.72	-2152.97	 3085.78
     38.4990	 4182.00	 4284.64	-2120.89	 3083.93
     38.5250	 4205.00	 4275.72	-2088.97	 3082.08
     38.5510	 4230.00	 4266.95	-2055.20	 3080.23
     38.5770	 4147.00	 4258.34	-2129.59	 3078.38
     38.6030	 4159.00	 4249.86	-2109.11	 3076.54
     38.6290	 4169.00	 4241.54	-2090.79	 3074.69
     38.6550	 4172.00	 4233.35	-2079.60	 3072.84
     38.6810	 4131.00	 4225.29	-2112.54	 3070.99
     38.7070	 4237.00	 4217.37	-1998.62	 3069.14
     38.7330	 4117.00	 4209.57	-2110.82	 3067.30
     38.7590	 4234.00	 4201.90	-1986.15	 3065.45
     38.7850	 4141.00	 4194.36	-2071.61	 3063.60
     38.8110	 4166.00	 4186.93	-2039.18	 3061.75
     38.8370	 4238.00	 4179.62	-1959.87	 3059.90
     38.8630	 4069.00	 4172.42	-2121.67	 3058.05
     38.8890	 4190.00	 4165.33	-1993.58	 3056.21
     38.9150	 4207.00	 4158.36	-1969.61	 3054.36
     38.9410	 4120.00	 4151.48	-2049.73	 3052.51
     38.9670	 4044.00	 4144.71	-2118.96	 3050.66
     38.9930	 4054.00	 4138.05	-2102.30	 3048.81
     39.0190	 4129.00	 4131.48	-2020.73	 3046.97
     39.0450	 4060.00	 4125.00	-2083.25	 3045.12
     39.0710	 4085.00	 4118.62	-2051.87	 3043.27
     39.0970	 4046.00	 4112.34	-2084.59	 3041.42
     39.1230	 3974.00	 4106.14	-2150.39	 3039.57
     39.1490	 4037.00	 4100.03	-2081.28	 3037.73
     39.1750	 4039.00	 4094.01	-2073.26	 3035.88
     39.2010	 3985.00	 4088.07	-2121.32	 3034.03
     39.2270	 4056.00	 4082.21	-2044.46	 3032.18
     39.2530	 4031.00	 4076.44	-2063.69	 3030.33
     39.2790	 4013.00	 4070.74	-2075.99	 3028.49
     39.3050	 4050.00	 4065.12	-2033.37	 3026.64
     39.3310	 4073.00	 4059.58	-2004.83	 3024.79
     39.3570	 4031.00	 4054.11	-2041.36	 3022.94
     39.3830	 4122.00	 4048.71	-1944.96	 3021.09
     39.4090	 4006.00	 4043.39	-2055.64	 3019.24
     39.4350	 4097.00	 4038.13	-1959.38	 3017.40
     39.4610	 4043.00	 4032.95	-2008.20	 3015.55
     39.4870	 4042.00	 4027.83	-2004.08	 3013.70
     39.5130	 4055.00	 4022.77	-1986.02	 3011.85
     39.5390	 4085.00	 4017.79	-1951.04	 3010.00
     39.5650	 4070.00	 4012.86	-1961.11	 3008.16
     39.5910	 4069.00	 4008.00	-1957.25	 3006.31
     39.6170	 4079.00	 4003.20	-1942.45	 3004.46
     39.6430	 3963.00	 3998.46	-2053.71	 3002.61
     39.6690	 4029.00	 3993.78	-1983.03	 3000.76
     39.6950	 4021.00	 3989.15	-1986.40	 2998.92
     39.7210	 3951.00	 3984.59	-2051.84	 2997.07
     39.7470	 3893.00	 3980.08	-2105.33	 2995.22
     39.7730	 3941.00	 3975.63	-2052.88	 2993.37
     39.7990	 3982.00	 3971.23	-2007.48	 2991.52
     39.8250	 3984.00	 3966.89	-2001.14	 2989.68
     39.8510	 3993.00	 3962.59	-1987.84	 2987.83
     39.8770	 3912.00	 3958.36	-2064.61	 2985.98
     39.9030	 3868.00	 3954.17	-2104.42	 2984.13
     39.9290	 3947.00	 3950.03	-2021.28	 2982.28
     39.9550	 4007.00	 3945.95	-1957.20	 2980.43
     39.9810	 3978.00	 3941.91	-1982.16	 2978.59
     40.0070	 3951.00	 3937.93	-2005.18	 2976.74
     40.0330	 3988.00	 3933.99	-1964.24	 2974.89
     40.0590	 4081.00	 3930.10	-1867.35	 2973.04
     40.0850	 4127.00	 3926.26	-1817.51	 2971.19
     40.1110	 3969.00	 3922.46	-1971.71	 2969.35
     40.1370	 3940.00	 3918.71	-1996.96	 2967.50
     40.1630	 3992.00	 3915.01	-1941.26	 2965.65
     40.1890	 4008.00	 3911.36	-1921.61	 2963.80
     40.2150	 4025.00	 3907.75	-1901.00	 2961.95
     40.2410	 4040.00	 3904.18	-1882.43	 2960.11
     40.2670	 4103.00	 3900.66	-1815.91	 2958.26
     40.2930	 4090.00	 3897.19	-1825.44	 2956.41
     40.3190	 4009.00	 3893.76	-1903.01	 2954.56
     40.3450	 3986.00	 3890.38	-1922.63	 2952.71
     40.3710	 4001.00	 3887.03	-1904.28	 2950.87
     40.3970	 3943.00	 3883.74	-1958.99	 2949.02
     40.4230	 3946.00	 3880.49	-1952.74	 2947.17
     40.4490	 3947.00	 3877.28	-1948.53	 2945.32
     40.4750	 3878.00	 3874.11	-2014.36	 2943.47
     40.5010	 3950.00	 3870.99	-1939.24	 2941.62
     40.5270	 3987.00	 3867.92	-1899.17	 2939.78
     40.5530	 3946.00	 3864.89	-1937.14	 2937.93
     40.5790	 3972.00	 3861.90	-1908.15	 2936.08
     40.6050	 3992.00	 3858.96	-1885.21	 2934.23
     40.6310	 3918.00	 3856.06	-1956.31	 2932.38
     40.6570	 3905.00	 3853.21	-1966.46	 2930.54
     40.6830	 3971.00	 3850.41	-1897.66	 2928.69
     40.7090	 3924.00	 3847.65	-1941.90	 2926.84
     40.7350	 3921.00	 3844.93	-1942.18	 2924.99
     40.7610	 3937.00	 3842.27	-1923.52	 2923.14
     40.7870	 3972.00	 3839.65	-1885.90	 2921.30
     40.8130	 3861.00	 3837.08	-1994.33	 2919.45
     40.8390	 3881.00	 3834.56	-1971.81	 2917.60
     40.8650	 3940.00	 3832.08	-1910.33	 2915.75
     40.8910	 3973.00	 3829.66	-1874.91	 2913.90
     40.9170	 3941.00	 3827.29	-1904.54	 2912.06
     40.9430	 3957.00	 3824.97	-1886.22	 2910.21
     40.9690	 3882.00	 3822.70	-1958.95	 2908.36
     40.9950	 3833.00	 3820.57	-2005.82	 2906.58
     41.0210	 3808.00	 3818.60	-2028.85	 2904.93
     41.0470	 3964.00	 3816.70	-1870.95	 2903.28
     41.0730	 3898.00	 3814.85	-1935.10	 2901.62
     41.0990	 3910.00	 3813.06	-1921.31	 2899.97
     41.1250	 3893.00	 3811.33	-1936.58	 2898.31
     41.1510	 3901.00	 3809.67	-1926.92	 2896.66
     41.1770	 3977.00	 3808.07	-1849.32	 2895.01
     41.2030	 3915.00	 3806.53	-1909.78	 2893.35
     41.2290	 3899.00	 3805.06	-1924.31	 2891.70
     41.2550	 3958.00	 3803.67	-1863.92	 2890.05
     41.2810	 3940.00	 3802.35	-1880.60	 2888.39
     41.3070	 3904.00	 3801.10	-1915.35	 2886.74
     41.3330	 3850.00	 3799.93	-1968.18	 2885.08
     41.3590	 3925.00	 3798.84	-1892.09	 2883.43
     41.3850	 3914.00	 3797.84	-1902.09	 2881.78
     41.4110	 3970.00	 3796.92	-1845.17	 2880.12
     41.4370	 3876.00	 3796.10	-1938.35	 2878.47
     41.4630	 3930.00	 3795.37	-1883.62	 2876.81
     41.4890	 3941.00	 3794.74	-1871.99	 2875.16
     41.5150	 3846.00	 3794.21	-1966.46	 2873.51
     41.5410	 3914.00	 3793.79	-1898.04	 2871.85
     41.5670	 4036.00	 3793.48	-1775.73	 2870.20
     41.5930	 3877.00	 3793.30	-1934.55	 2868.54
     41.6190	 3874.00	 3793.23	-1937.48	 2866.89
     41.6450	 3906.00	 3793.30	-1905.55	 2865.24
     41.6710	 3925.00	 3793.50	-1886.75	 2863.58
     41.6970	 3814.00	 3793.85	-1998.10	 2861.93
     41.7230	 3844.00	 3794.35	-1968.60	 2860.27
     41.7490	 3902.00	 3795.01	-1911.26	 2858.62
     41.7750	 3819.00	 3795.84	-1995.09	 2856.97
     41.8010	 3809.00	 3796.85	-2006.10	 2855.31
     41.8270	 3939.00	 3798.05	-1877.30	 2853.66
     41.8530	 3850.00	 3799.45	-1967.70	 2852.00
     41.8790	 3879.00	 3801.07	-1940.32	 2850.35
     41.9050	 3885.00	 3802.91	-1936.16	 2848.70
     41.9310	 3821.00	 3804.99	-2002.24	 2847.04
     41.9570	 3932.00	 3807.32	-1893.57	 2845.39
     41.9830	 3876.00	 3809.94	-1952.19	 2843.73
     42.0090	 3898.00	 3812.84	-1933.09	 2842.08
     42.0350	 3900.00	 3816.05	-1934.30	 2840.43
     42.0610	 3891.00	 3819.60	-1946.85	 2838.77
     42.0870	 3836.00	 3823.50	-2005.75	 2837.12
     42.1130	 3807.00	 3827.78	-2039.03	 2835.47
     42.1390	 3864.00	 3832.48	-1986.73	 2833.81
     42.1650	 3850.00	 3837.61	-2005.86	 2832.16
     42.1910	 3821.00	 3843.22	-2040.47	 2830.50
     42.2170	 3848.00	 3849.33	-2019.58	 2828.85
     42.2430	 3873.00	 3856.00	-2001.25	 2827.20
     42.2690	 3844.00	 3863.25	-2037.50	 2825.54
     42.2950	 3861.00	 3871.15	-2028.40	 2823.89
     42.3210	 3864.00	 3879.73	-2033.98	 2822.23
     42.3470	 3889.00	 3889.06	-2018.31	 2820.58
     42.3730	 3818.00	 3899.20	-2099.45	 2818.93
     42.3990	 3824.00	 3910.20	-2104.45	 2817.27
     42.4250	 3895.00	 3922.15	-2045.40	 2815.62
     42.4510	 3843.00	 3935.13	-2110.38	 2813.96
     42.4770	 3974.00	 3949.21	-1993.46	 2812.31
     42.5030	 3938.00	 3964.49	-2044.74	 2810.66
     42.5290	 3916.00	 3981.06	-2083.31	 2809.00
     42.5550	 3924.00	 3999.04	-2093.29	 2807.35
     42.5810	 3950.00	 4018.54	-2086.79	 2805.69
     42.6070	 4118.00	 4039.67	-1939.92	 2804.04
     42.6330	 4003.00	 4062.56	-2077.81	 2802.39
     42.6590	 4109.00	 4087.36	-1996.61	 2800.73
     42.6850	 4202.00	 4114.18	-1930.43	 2799.08
     42.7110	 4221.00	 4143.17	-1940.42	 2797.42
     42.7370	 4294.00	 4174.45	-1898.70	 2795.77
     42.7630	 4304.00	 4208.16	-1922.41	 2794.12
     42.7890	 4402.00	 4244.40	-1860.65	 2792.46
     42.8150	 4526.00	 4283.27	-1775.52	 2790.81
     42.8410	 4516.00	 4324.80	-1827.05	 2789.16
     42.8670	 4534.00	 4369.00	-1853.25	 2787.50
     42.8930	 4588.00	 4415.81	-1846.06	 2785.85
     42.9190	 4628.00	 4465.06	-1855.31	 2784.19
     42.9450	 4623.00	 4516.49	-1911.74	 2782.54
     42.9710	 4674.00	 4569.72	-1913.97	 2780.89
     42.9970	 4712.00	 4624.18	-1930.43	 2779.23
     43.0230	 4735.00	 4679.15	-1962.40	 2777.58
     43.0490	 4794.00	 4733.72	-1957.97	 2775.92
     43.0750	 4778.00	 4786.81	-2027.06	 2774.27
     43.1010	 4845.00	 4837.19	-2010.44	 2772.62
     43.1270	 4911.00	 4883.49	-1990.74	 2770.96
     43.1530	 4909.00	 4924.33	-2033.58	 2769.31
     43.1790	 4942.00	 4958.34	-2034.59	 2767.65
     43.2050	 4944.00	 4984.31	-2058.56	 2766.00
     43.2310	 4988.00	 5001.22	-2031.47	 2764.35
     43.2570	 5004.00	 5008.39	-2022.64	 2762.69
     43.2830	 4997.00	 5005.49	-2026.74	 2761.04
     43.3090	 5018.00	 4992.58	-1992.83	 2759.38
     43.3350	 4980.00	 4970.11	-2008.36	 2757.73
     43.3610	 4913.00	 4938.85	-2044.10	 2756.08
     43.3870	 5029.00	 4899.84	-1889.09	 2754.42
     43.4130	 5052.00	 4854.31	-1820.56	 2752.77
     43.4390	 4925.00	 4803.59	-1896.84	 2751.11
     43.4650	 4867.00	 4749.02	-1900.27	 2749.46
     43.4910	 4832.00	 4691.90	-1878.15	 2747.81
     43.5170	 4845.00	 4633.40	-1806.65	 2746.15
     43.5430	 4690.00	 4574.57	-1902.82	 2744.50
     43.5690	 4618.00	 4516.25	-1916.50	 2742.85
     43.5950	 4670.00	 4459.15	-1807.40	 2741.19
     43.6210	 4694.00	 4403.81	-1728.06	 2739.54
     43.6470	 4564.00	 4350.62	-1804.87	 2737.88
     43.6730	 4466.00	 4299.83	-1852.08	 2736.23
     43.6990	 4404.00	 4251.60	-1865.85	 2734.58
     43.7250	 4352.00	 4206.00	-1872.25	 2732.92
     43.7510	 4242.00	 4163.03	-1939.28	 2731.27
     43.7770	 4157.00	 4122.65	-1983.90	 2729.61
     43.8030	 4154.00	 4084.78	-1949.03	 2727.96
     43.8290	 4095.00	 4049.30	-1972.55	 2726.31
     43.8550	 3990.00	 4016.11	-2044.36	 2724.65
     43.8810	 3979.00	 3985.07	-2024.32	 2723.00
     43.9070	 3909.00	 3956.03	-2065.28	 2721.34
     43.9330	 3900.00	 3928.88	-2047.13	 2719.69
     43.9590	 3845.00	 3903.48	-2076.73	 2718.04
     43.9850	 3786.00	 3879.71	-2111.96	 2716.38
     44.0110	 3823.00	 3857.44	-2052.69	 2714.73
     44.0370	 3737.00	 3836.56	-2117.81	 2713.07
     44.0630	 3781.00	 3816.98	-2054.23	 2711.42
     44.0890	 3743.00	 3798.58	-2073.83	 2709.77
     44.1150	 3604.00	 3781.28	-2195.53	 2708.11
     44.1410	 3521.00	 3765.00	-2262.25	 2706.46
     44.1670	 3678.00	 3749.66	-2089.91	 2704.80
     44.1930	 3599.00	 3735.17	-2154.42	 2703.15
     44.2190	 3538.00	 3721.49	-2201.74	 2701.50
     44.2450	 3573.00	 3708.55	-2153.80	 2699.84
     44.2710	 3546.00	 3696.29	-2168.54	 2698.19
     44.2970	 3596.00	 3684.66	-2106.91	 2696.53
     44.3230	 3525.00	 3673.61	-2166.86	 2694.88
     44.3490	 3483.00	 3663.10	-2198.35	 2693.23
     44.3750	 3541.00	 3653.10	-2130.35	 2691.57
     44.4010	 3545.00	 3643.57	-2116.82	 2689.92
     44.4270	 3534.00	 3634.46	-2118.71	 2688.27
     44.4530	 3460.00	 3625.76	-2184.01	 2686.61
     44.4790	 3443.00	 3617.44	-2192.69	 2684.96
     44.5050	 3605.00	 3609.46	-2022.71	 2683.30
     44.5310	 3465.00	 3601.80	-2155.05	 2681.65
     44.5570	 3446.00	 3594.46	-2166.71	 2680.00
     44.5830	 3406.00	 3587.39	-2199.64	 2678.34
     44.6090	 3417.00	 3581.17	-2182.42	 2677.27
     44.6350	 3511.00	 3575.34	-2082.59	 2676.34
     44.6610	 3581.00	 3569.75	-2007.00	 2675.41
     44.6870	 3507.00	 3564.37	-2075.62	 2674.48
     44.7130	 3497.00	 3559.20	-2080.45	 2673.55
     44.7390	 3527.00	 3554.22	-2045.47	 2672.62
     44.7650	 3458.00	 3549.42	-2109.67	 2671.70
     44.7910	 3459.00	 3544.79	-2104.04	 2670.77
     44.8170	 3482.00	 3540.33	-2076.58	 2669.84
     44.8430	 3362.00	 3536.01	-2192.26	 2668.91
     44.8690	 3404.00	 3531.84	-2146.09	 2667.98
     44.8950	 3429.00	 3527.79	-2117.04	 2667.05
     44.9210	 3349.00	 3523.88	-2193.13	 2666.13
     44.9470	 3403.00	 3520.09	-2135.34	 2665.20
     44.9730	 3411.00	 3516.41	-2123.66	 2664.27
     44.9990	 3432.00	 3512.84	-2099.09	 2663.34
     45.0250	 3319.00	 3509.37	-2208.62	 2662.41
     45.0510	 3317.00	 3506.00	-2207.25	 2661.48
     45.0770	 3419.00	 3502.72	-2101.97	 2660.56
     45.1030	 3350.00	 3499.53	-2167.78	 2659.63
     45.1290	 3332.00	 3496.42	-2182.67	 2658.70
     45.1550	 3322.00	 3493.39	-2189.64	 2657.77
     45.1810	 3410.00	 3490.43	-2098.68	 2656.84
     45.2070	 3450.00	 3487.55	-2055.80	 2655.91
     45.2330	 3375.00	 3484.73	-2127.98	 2654.99
     45.2590	 3312.00	 3481.98	-2188.23	 2654.06
     45.2850	 3334.00	 3479.29	-2163.54	 2653.13
     45.3110	 3350.00	 3476.67	-2144.92	 2652.20
     45.3370	 3334.00	 3474.09	-2158.34	 2651.27
     45.3630	 3377.00	 3471.57	-2112.82	 2650.34
     45.3890	 3375.00	 3469.11	-2112.36	 2649.42
     45.4150	 3321.00	 3466.69	-2163.94	 2648.49
     45.4410	 3310.00	 3464.32	-2172.57	 2647.56
     45.4670	 3305.00	 3462.00	-2175.25	 2646.63
     45.4930	 3297.00	 3459.72	-2180.97	 2645.70
     45.5190	 3319.00	 3457.48	-2156.73	 2644.77
     45.5450	 3378.00	 3455.28	-2095.53	 2643.85
     45.5710	 3426.00	 3453.12	-2045.37	 2642.92
     45.5970	 3403.00	 3451.00	-2066.25	 2641.99
     45.6230	 3337.00	 3448.91	-2130.16	 2641.06
     45.6490	 3347.00	 3446.86	-2118.11	 2640.13
     45.6750	 3396.00	 3444.84	-2067.09	 2639.20
     45.7010	 3420.00	 3442.85	-2041.10	 2638.28
     45.7270	 3402.00	 3440.89	-2057.14	 2637.35
     45.7530	 3355.00	 3438.96	-2102.21	 2636.42
     45.7790	 3385.00	 3437.06	-2070.31	 2635.49
     45.8050	 3359.00	 3435.19	-2094.44	 2634.56
     45.8310	 3350.00	 3433.34	-2101.59	 2633.63
     45.8570	 3411.00	 3431.52	-2038.77	 2632.71
     45.8830	 3318.00	 3429.72	-2129.97	 2631.78
     45.9090	 3327.00	 3427.95	-2119.20	 2630.85
     45.9350	 3359.00	 3426.20	-2085.45	 2629.92
     45.9610	 3296.00	 3424.47	-2146.72	 2628.99
     45.9870	 3339.00	 3422.76	-2102.01	 2628.06
     46.0130	 3374.00	 3421.08	-2065.33	 2627.14
     46.0390	 3380.00	 3419.41	-2057.66	 2626.21
     46.0650	 3409.00	 3417.76	-2027.01	 2625.28
     46.0910	 3343.00	 3416.14	-2091.39	 2624.35
     46.1170	 3300.00	 3414.53	-2132.78	 2623.42
     46.1430	 3373.00	 3412.93	-2058.18	 2622.49
     46.1690	 3247.00	 3411.36	-2182.61	 2621.57
     46.1950	 3301.00	 3409.80	-2127.05	 2620.64
     46.2210	 3446.00	 3408.26	-1980.51	 2619.71
     46.2470	 3348.00	 3406.74	-2076.99	 2618.78
     46.2730	 3338.00	 3405.23	-2085.48	 2617.85
     46.2990	 3342.00	 3403.73	-2079.98	 2616.93
     46.3250	 3327.00	 3402.25	-2093.50	 2616.00
     46.3510	 3339.00	 3400.78	-2080.03	 2615.07
     46.3770	 3220.00	 3399.33	-2197.58	 2614.14
     46.4030	 3252.00	 3397.89	-2164.14	 2613.21
     46.4290	 3301.00	 3396.46	-2113.71	 2612.28
     46.4550	 3417.00	 3395.05	-1996.30	 2611.36
     46.4810	 3368.00	 3393.65	-2043.90	 2610.43
     46.5070	 3353.00	 3392.26	-2057.51	 2609.50
     46.5330	 3325.00	 3390.88	-2084.13	 2608.57
     46.5590	 3381.00	 3389.51	-2026.76	 2607.64
     46.5850	 3312.00	 3388.16	-2094.41	 2606.71
     46.6110	 3350.00	 3386.81	-2055.06	 2605.79
     46.6370	 3353.00	 3385.48	-2050.73	 2604.86
     46.6630	 3395.00	 3384.16	-2007.41	 2603.93
     46.6890	 3354.00	 3382.85	-2047.10	 2603.00
     46.7150	 3338.00	 3381.54	-2061.79	 2602.07
     46.7410	 3353.00	 3380.25	-2045.50	 2601.14
     46.7670	 3299.00	 3378.97	-2098.22	 2600.22
     46.7930	 3389.00	 3377.69	-2006.94	 2599.29
     46.8190	 3284.00	 3376.43	-2110.68	 2598.36
     46.8450	 3342.00	 3375.17	-2051.42	 2597.43
     46.8710	 3393.00	 3373.93	-1999.18	 2596.50
     46.8970	 3362.00	 3372.69	-2028.94	 2595.57
     46.9230	 3253.00	 3371.46	-2136.71	 2594.65
     46.9490	 3392.00	 3370.24	-1996.49	 2593.72
     46.9750	 3283.00	 3369.03	-2104.28	 2592.79
     47.0010	 3431.00	 3367.82	-1955.07	 2591.86
     47.0270	 3421.00	 3366.63	-1963.88	 2590.93
     47.0530	 3364.00	 3365.44	-2019.69	 2590.00
     47.0790	 3333.00	 3364.26	-2049.51	 2589.08
     47.1050	 3268.00	 3363.08	-2113.33	 2588.15
     47.1310	 3349.00	 3361.92	-2031.17	 2587.22
     47.1570	 3347.00	 3360.76	-2032.01	 2586.29
     47.1830	 3328.00	 3359.61	-2049.86	 2585.36
     47.2090	 3294.00	 3358.46	-2082.71	 2584.43
     47.2350	 3371.00	 3357.33	-2004.58	 2583.51
     47.2610	 3293.00	 3356.20	-2081.45	 2582.58
     47.2870	 3285.00	 3355.07	-2088.32	 2581.65
     47.3130	 3263.00	 3353.96	-2109.21	 2580.72
     47.3390	 3333.00	 3352.85	-2038.10	 2579.79
     47.3650	 3332.00	 3351.74	-2037.99	 2578.86
     47.3910	 3308.00	 3350.65	-2060.90	 2577.94
     47.4170	 3359.00	 3349.56	-2008.81	 2577.01
     47.4430	 3291.00	 3348.47	-2075.72	 2576.08
     47.4690	 3351.00	 3347.39	-2014.64	 2575.15
     47.4950	 3334.00	 3346.32	-2030.57	 2574.22
     47.5210	 3340.00	 3345.26	-2023.51	 2573.29
     47.5470	 3255.00	 3344.20	-2107.45	 2572.37
     47.5730	 3306.00	 3343.15	-2055.40	 2571.44
     47.5990	 3377.00	 3342.10	-1983.35	 2570.51
     47.6250	 3363.00	 3341.06	-1996.31	 2569.58
     47.6510	 3350.00	 3340.02	-2008.27	 2568.65
     47.6770	 3366.00	 3338.99	-1991.24	 2567.72
     47.7030	 3338.00	 3337.97	-2018.22	 2566.80
     47.7290	 3297.00	 3336.95	-2058.20	 2565.87
     47.7550	 3327.00	 3335.94	-2027.19	 2564.94
     47.7810	 3343.00	 3334.93	-2010.18	 2564.01
     47.8070	 3274.00	 3333.93	-2078.18	 2563.08
     47.8330	 3295.00	 3332.94	-2056.19	 2562.15
     47.8590	 3246.00	 3331.95	-2104.20	 2561.23
     47.8850	 3203.00	 3330.97	-2146.22	 2560.30
     47.9110	 3318.00	 3329.99	-2030.24	 2559.37
     47.9370	 3320.00	 3329.02	-2027.27	 2558.44
     47.9630	 3245.00	 3328.05	-2101.30	 2557.51
     47.9890	 3276.00	 3327.09	-2069.34	 2556.58
     48.0150	 3352.00	 3326.47	-1992.72	 2556.00
     48.0410	 3334.00	 3326.39	-2010.64	 2555.94
     48.0670	 3432.00	 3326.32	-1912.57	 2555.88
     48.0930	 3392.00	 3326.25	-1952.50	 2555.83
     48.1190	 3220.00	 3326.19	-2124.44	 2555.77
     48.1450	 3280.00	 3326.13	-2064.38	 2555.71
     48.1710	 3347.00	 3326.08	-1997.33	 2555.65
     48.1970	 3300.00	 3326.03	-2044.28	 2555.60
     48.2230	 3243.00	 3325.99	-2101.24	 2555.54
     48.2490	 3240.00	 3325.96	-2104.21	 2555.48
     48.2750	 3254.00	 3325.93	-2090.18	 2555.43
     48.3010	 3254.00	 3325.90	-2090.15	 2555.37
     48.3270	 3297.00	 3325.88	-2047.13	 2555.31
     48.3530	 3302.00	 3325.87	-2042.12	 2555.25
     48.3790	 3307.00	 3325.86	-2037.11	 2555.20
     48.4050	 3294.00	 3325.86	-2050.11	 2555.14
     48.4310	 3242.00	 3325.86	-2102.11	 2555.08
     48.4570	 3256.00	 3325.87	-2088.12	 2555.02
     48.4830	 3292.00	 3325.88	-2052.13	 2554.97
     48.5090	 3312.00	 3325.90	-2032.15	 2554.91
     48.5350	 3285.00	 3325.93	-2059.18	 2554.85
     48.5610	 3284.00	 3325.96	-2060.21	 2554.80
     48.5870	 3287.00	 3325.99	-2057.24	 2554.74
     48.6130	 3335.00	 3326.04	-2009.29	 2554.68
     48.6390	 3300.00	 3326.08	-2044.33	 2554.62
     48.6650	 3317.00	 3326.14	-2027.39	 2554.57
     48.6910	 3301.00	 3326.20	-2043.45	 2554.51
     48.7170	 3290.00	 3326.26	-2054.51	 2554.45
     48.7430	 3239.00	 3326.33	-2105.58	 2554.39
     48.7690	 3235.00	 3326.41	-2109.66	 2554.34
     48.7950	 3212.00	 3326.49	-2132.74	 2554.28
     48.8210	 3255.00	 3326.58	-2089.83	 2554.22
     48.8470	 3271.00	 3326.68	-2073.93	 2554.17
     48.8730	 3241.00	 3326.78	-2104.03	 2554.11
     48.8990	 3219.00	 3326.89	-2126.14	 2554.05
     48.9250	 3179.00	 3327.00	-2166.25	 2553.99
     48.9510	 3339.00	 3327.12	-2006.37	 2553.94
     48.9770	 3320.00	 3327.24	-2025.49	 2553.88
     49.0030	 3247.00	 3327.38	-2098.63	 2553.82
     49.0290	 3253.00	 3327.52	-2092.77	 2553.77
     49.0550	 3218.00	 3327.66	-2127.91	 2553.71
     49.0810	 3218.00	 3327.81	-2128.06	 2553.65
     49.1070	 3399.00	 3327.97	-1947.22	 2553.59
     49.1330	 3216.00	 3328.14	-2130.39	 2553.54
     49.1590	 3264.00	 3328.31	-2082.56	 2553.48
     49.1850	 3312.00	 3328.49	-2034.74	 2553.42
     49.2110	 3318.00	 3328.68	-2028.93	 2553.36
     49.2370	 3312.00	 3328.87	-2035.12	 2553.31
     49.2630	 3240.00	 3329.07	-2107.32	 2553.25
     49.2890	 3403.00	 3329.28	-1944.53	 2553.19
     49.3150	 3355.00	 3329.49	-1992.74	 2553.14
     49.3410	 3317.00	 3329.71	-2030.96	 2553.08
     49.3670	 3214.00	 3329.94	-2134.19	 2553.02
     49.3930	 3213.00	 3330.18	-2135.43	 2552.96
     49.4190	 3306.00	 3330.42	-2042.67	 2552.91
     49.4450	 3331.00	 3330.68	-2017.93	 2552.85
     49.4710	 3327.00	 3330.94	-2022.19	 2552.79
     49.4970	 3267.00	 3331.21	-2082.46	 2552.73
     49.5230	 3337.00	 3331.48	-2012.73	 2552.68
     49.5490	 3417.00	 3331.77	-1933.02	 2552.62
     49.5750	 3370.00	 3332.06	-1980.31	 2552.56
     49.6010	 3403.00	 3332.37	-1947.62	 2552.51
     49.6270	 3337.00	 3332.68	-2013.93	 2552.45
     49.6530	 3436.00	 3333.00	-1915.25	 2552.39
     49.6790	 3410.00	 3333.32	-1941.57	 2552.33
     49.7050	 3453.00	 3333.66	-1898.91	 2552.28
     49.7310	 3211.00	 3334.01	-2141.26	 2552.22
     49.7570	 3320.00	 3334.37	-2032.62	 2552.16
     49.7830	 3356.00	 3334.73	-1996.98	 2552.10
     49.8090	 3290.00	 3335.11	-2063.36	 2552.05
     49.8350	 3335.00	 3335.49	-2018.74	 2551.99
     49.8610	 3401.00	 3335.89	-1953.14	 2551.93
     49.8870	 3358.00	 3336.30	-1996.55	 2551.88
     49.9130	 3251.00	 3336.71	-2103.96	 2551.82
     49.9390	 3337.00	 3337.14	-2018.39	 2551.76
     49.9650	 3266.00	 3337.58	-2089.83	 2551.70
     49.9910	 3374.00	 3338.03	-1982.28	 2551.65
     50.0170	 3446.00	 3338.49	-1910.74	 2551.59
     50.0430	 3348.00	 3338.96	-2009.21	 2551.53
     50.0690	 3262.00	 3339.44	-2095.69	 2551.47
     50.0950	 3307.00	 3339.94	-2051.19	 2551.42
     50.1210	 3274.00	 3340.50	-2084.75	 2551.41
     50.1470	 3365.00	 3341.07	-1994.32	 2551.41
     50.1730	 3335.00	 3341.66	-2024.91	 2551.41
     50.1990	 3282.00	 3342.26	-2078.51	 2551.41
     50.2250	 3345.00	 3342.88	-2016.13	 2551.41
     50.2510	 3335.00	 3343.51	-2026.76	 2551.41
     50.2770	 3341.00	 3344.15	-2021.40	 2551.41
     50.3030	 3304.00	 3344.81	-2059.06	 2551.41
     50.3290	 3266.00	 3345.48	-2097.73	 2551.41
     50.3550	 3307.00	 3346.17	-2057.42	 2551.41
     50.3810	 3363.00	 3346.87	-2002.12	 2551.41
     50.4070	 3412.00	 3347.58	-1953.83	 2551.41
     50.4330	 3368.00	 3348.31	-1998.56	 2551.41
     50.4590	 3292.00	 3349.06	-2075.31	 2551.41
     50.4850	 3378.00	 3349.82	-1990.07	 2551.41
     50.5110	 3365.00	 3350.60	-2003.85	 2551.41
     50.5370	 3384.00	 3351.40	-1985.65	 2551.41
     50.5630	 3352.00	 3352.21	-2018.46	 2551.41
     50.5890	 3336.00	 3353.05	-2035.30	 2551.41
     50.6150	 3403.00	 3353.90	-1969.15	 2551.41
     50.6410	 3384.00	 3354.76	-1989.01	 2551.41
     50.6670	 3323.00	 3355.65	-2050.90	 2551.41
     50.6930	 3261.00	 3356.56	-2113.81	 2551.41
     50.7190	 3289.00	 3357.49	-2086.74	 2551.41
     50.7450	 3354.00	 3358.43	-2022.68	 2551.41
     50.7710	 3363.00	 3359.40	-2014.65	 2551.41
     50.7970	 3381.00	 3360.39	-1997.64	 2551.41
     50.8230	 3395.00	 3361.40	-1984.65	 2551.41
     50.8490	 3382.00	 3362.43	-1998.68	 2551.41
     50.8750	 3380.00	 3363.49	-2001.74	 2551.41
     50.9010	 3373.00	 3364.57	-2009.82	 2551.41
     50.9270	 3379.00	 3365.67	-2004.92	 2551.41
     50.9530	 3431.00	 3366.80	-1954.05	 2551.41
     50.9790	 3426.00	 3367.95	-1960.20	 2551.41
     51.0050	 3346.00	 3369.13	-2041.38	 2551.41
     51.0310	 3359.00	 3370.34	-2029.59	 2551.41
     51.0570	 3427.00	 3371.57	-1962.82	 2551.41
     51.0830	 3401.00	 3372.83	-1990.08	 2551.41
     51.1090	 3372.00	 3374.12	-2020.37	 2551.41
     51.1350	 3366.00	 3375.44	-2027.69	 2551.41
     51.1610	 3377.00	 3376.79	-2018.04	 2551.41
     51.1870	 3403.00	 3378.17	-1993.42	 2551.41
     51.2130	 3414.00	 3379.58	-1983.83	 2551.41
     51.2390	 3435.00	 3381.02	-1964.27	 2551.41
     51.2650	 3478.00	 3382.50	-1922.75	 2551.41
     51.2910	 3465.00	 3384.01	-1937.26	 2551.41
     51.3170	 3419.00	 3385.55	-1984.80	 2551.41
     51.3430	 3423.00	 3387.13	-1982.38	 2551.41
     51.3690	 3413.00	 3388.75	-1994.00	 2551.41
     51.3950	 3391.00	 3390.40	-2017.65	 2551.41
     51.4210	 3495.00	 3392.10	-1915.35	 2551.41
     51.4470	 3433.00	 3393.83	-1979.08	 2551.41
     51.4730	 3444.00	 3395.60	-1969.85	 2551.41
     51.4990	 3490.00	 3397.42	-1925.67	 2551.41
     51.5250	 3424.00	 3399.27	-1993.52	 2551.41
     51.5510	 3476.00	 3401.17	-1943.42	 2551.41
     51.5770	 3465.00	 3403.12	-1956.37	 2551.41
     51.6030	 3455.00	 3405.11	-1968.36	 2551.41
     51.6290	 3423.00	 3407.15	-2002.40	 2551.41
     51.6550	 3474.00	 3409.23	-1953.48	 2551.41
     51.6810	 3440.00	 3411.37	-1989.62	 2551.41
     51.7070	 3473.00	 3413.55	-1958.80	 2551.41
     51.7330	 3481.00	 3415.79	-1953.04	 2551.41
     51.7590	 3504.00	 3418.08	-1932.33	 2551.41
     51.7850	 3459.00	 3420.42	-1979.67	 2551.41
     51.8110	 3398.00	 3422.82	-2043.07	 2551.41
     51.8370	 3460.00	 3425.28	-1983.53	 2551.41
     51.8630	 3401.00	 3427.79	-2045.04	 2551.41
     51.8890	 3412.00	 3430.36	-2036.61	 2551.41
     51.9150	 3523.00	 3432.99	-1928.24	 2551.41
     51.9410	 3432.00	 3435.69	-2021.94	 2551.41
     51.9670	 3348.00	 3438.44	-2108.69	 2551.41
     51.9930	 3372.00	 3441.26	-2087.51	 2551.41
     52.0190	 3401.00	 3444.15	-2061.40	 2551.41
     52.0450	 3470.00	 3447.10	-1995.35	 2551.41
     52.0710	 3396.00	 3450.12	-2072.37	 2551.41
     52.0970	 3424.00	 3453.20	-2047.45	 2551.41
     52.1230	 3481.00	 3456.36	-1993.61	 2551.41
     52.1490	 3503.00	 3459.58	-1974.83	 2551.41
     52.1750	 3546.00	 3462.88	-1935.13	 2551.41
     52.2010	 3434.00	 3466.25	-2050.50	 2551.41
     52.2270	 3562.00	 3469.69	-1925.94	 2551.41
     52.2530	 3442.00	 3473.20	-2049.45	 2551.41
     52.2790	 3436.00	 3476.79	-2059.04	 2551.41
     52.3050	 3461.00	 3480.45	-2037.70	 2551.41
     52.3310	 3465.00	 3484.19	-2037.44	 2551.41
     52.3570	 3512.00	 3487.99	-1994.24	 2551.41
     52.3830	 3417.00	 3491.88	-2093.13	 2551.41
     52.4090	 3495.00	 3495.83	-2019.08	 2551.41
     52.4350	 3540.00	 3499.86	-1978.11	 2551.41
     52.4610	 3523.00	 3503.96	-1999.21	 2551.41
     52.4870	 3501.00	 3508.13	-2025.38	 2551.41
     52.5130	 3514.00	 3512.37	-2016.62	 2551.41
     52.5390	 3531.00	 3516.68	-2003.93	 2551.41
     52.5650	 3436.00	 3521.05	-2103.30	 2551.41
     52.5910	 3483.00	 3525.48	-2060.73	 2551.41
     52.6170	 3554.00	 3529.98	-1994.23	 2551.41
     52.6430	 3463.00	 3534.53	-2089.78	 2551.41
     52.6690	 3547.00	 3539.13	-2010.38	 2551.41
     52.6950	 3533.00	 3543.78	-2029.03	 2551.41
     52.7210	 3566.00	 3548.47	-2000.72	 2551.41
     52.7470	 3518.00	 3553.21	-2053.46	 2551.41
     52.7730	 3561.00	 3557.97	-2015.22	 2551.41
     52.7990	 3600.00	 3562.76	-1981.01	 2551.41
     52.8250	 3660.00	 3567.57	-1925.82	 2551.41
     52.8510	 3602.00	 3572.40	-1988.65	 2551.41
     52.8770	 3668.00	 3577.33	-1927.58	 2551.51
     52.9030	 3603.00	 3582.31	-1997.56	 2551.67
     52.9290	 3562.00	 3587.28	-2043.53	 2551.83
     52.9550	 3584.00	 3592.23	-2026.48	 2551.99
     52.9810	 3649.00	 3597.15	-1966.40	 2552.15
     53.0070	 3608.00	 3602.02	-2012.27	 2552.31
     53.0330	 3584.00	 3606.85	-2041.10	 2552.47
     53.0590	 3577.00	 3611.60	-2052.85	 2552.63
     53.0850	 3596.00	 3616.29	-2038.54	 2552.79
     53.1110	 3644.00	 3620.88	-1995.13	 2552.95
     53.1370	 3622.00	 3625.38	-2021.63	 2553.11
     53.1630	 3615.00	 3629.76	-2033.01	 2553.27
     53.1890	 3562.00	 3634.02	-2090.27	 2553.43
     53.2150	 3578.00	 3638.15	-2078.40	 2553.59
     53.2410	 3613.00	 3642.13	-2047.38	 2553.75
     53.2670	 3567.00	 3645.95	-2097.20	 2553.91
     53.2930	 3556.00	 3649.61	-2111.86	 2554.07
     53.3190	 3661.00	 3653.09	-2010.34	 2554.23
     53.3450	 3716.00	 3656.38	-1958.63	 2554.39
     53.3710	 3659.00	 3659.48	-2018.73	 2554.55
     53.3970	 3659.00	 3662.37	-2021.62	 2554.71
     53.4230	 3675.00	 3665.05	-2008.30	 2554.87
     53.4490	 3622.00	 3667.52	-2063.77	 2555.03
     53.4750	 3621.00	 3669.76	-2067.01	 2555.19
     53.5010	 3629.00	 3671.78	-2061.03	 2555.35
     53.5270	 3642.00	 3673.58	-2049.83	 2555.51
     53.5530	 3658.00	 3675.14	-2035.39	 2555.67
     53.5790	 3644.00	 3676.48	-2050.73	 2555.83
     53.6050	 3686.00	 3677.60	-2009.85	 2555.99
     53.6310	 3678.00	 3678.49	-2018.74	 2556.15
     53.6570	 3669.00	 3679.16	-2028.41	 2556.31
     53.6830	 3672.00	 3679.62	-2025.87	 2556.48
     53.7090	 3667.00	 3679.88	-2031.12	 2556.64
     53.7350	 3711.00	 3679.93	-1987.18	 2556.80
     53.7610	 3656.00	 3679.80	-2042.05	 2556.96
     53.7870	 3639.00	 3679.48	-2058.73	 2557.12
     53.8130	 3648.00	 3679.00	-2049.25	 2557.28
     53.8390	 3687.00	 3678.35	-2009.60	 2557.44
     53.8650	 3643.00	 3677.56	-2052.81	 2557.60
     53.8910	 3678.00	 3676.64	-2016.89	 2557.76
     53.9170	 3642.00	 3675.59	-2051.84	 2557.92
     53.9430	 3654.00	 3674.43	-2038.68	 2558.08
     53.9690	 3726.00	 3673.18	-1965.43	 2558.24
     53.9950	 3683.00	 3671.85	-2007.10	 2558.40
     54.0210	 3693.00	 3670.44	-1995.69	 2558.56
     54.0470	 3683.00	 3668.98	-2004.23	 2558.72
     54.0730	 3680.00	 3667.47	-2005.72	 2558.88
     54.0990	 3667.00	 3665.93	-2017.18	 2559.04
     54.1250	 3614.00	 3664.38	-2068.63	 2559.20
     54.1510	 3782.00	 3662.81	-1899.06	 2559.36
     54.1770	 3768.00	 3661.26	-1911.51	 2559.52
     54.2030	 3704.00	 3659.71	-1973.96	 2559.68
     54.2290	 3691.00	 3658.20	-1985.45	 2559.84
     54.2550	 3685.00	 3656.71	-1989.96	 2560.00
     54.2810	 3720.00	 3655.28	-1953.53	 2560.16
     54.3070	 3831.00	 3653.90	-1841.15	 2560.32
     54.3330	 3681.00	 3652.59	-1989.84	 2560.48
     54.3590	 3640.00	 3651.35	-2029.60	 2560.64
     54.3850	 3698.00	 3650.18	-1970.43	 2560.80
     54.4110	 3609.00	 3649.11	-2058.36	 2560.96
     54.4370	 3673.00	 3648.13	-1993.38	 2561.12
     54.4630	 3667.00	 3647.25	-1998.50	 2561.28
     54.4890	 3642.00	 3646.47	-2022.72	 2561.44
     54.5150	 3773.00	 3645.81	-1891.06	 2561.60
     54.5410	 3688.00	 3645.26	-1975.51	 2561.76
     54.5670	 3582.00	 3644.84	-2081.09	 2561.92
     54.5930	 3678.00	 3644.54	-1984.79	 2562.08
     54.6190	 3651.00	 3644.37	-2011.62	 2562.24
     54.6450	 3659.00	 3644.33	-2003.58	 2562.40
     54.6710	 3700.00	 3644.43	-1962.68	 2562.56
     54.6970	 3714.00	 3644.68	-1948.93	 2562.72
     54.7230	 3705.00	 3645.06	-1958.31	 2562.88
     54.7490	 3674.00	 3645.59	-1989.84	 2563.04
     54.7750	 3651.00	 3646.28	-2013.53	 2563.20
     54.8010	 3743.00	 3647.11	-1922.36	 2563.36
     54.8270	 3688.00	 3648.10	-1978.35	 2563.53
     54.8530	 3662.00	 3649.24	-2005.49	 2563.69
     54.8790	 3552.00	 3650.55	-2116.80	 2563.85
     54.9050	 3737.00	 3652.01	-1933.26	 2564.01
     54.9310	 3697.00	 3653.64	-1974.89	 2564.17
     54.9570	 3643.00	 3655.43	-2030.68	 2564.33
     54.9830	 3732.00	 3657.40	-1943.65	 2564.49
     55.0090	 3635.00	 3659.53	-2042.78	 2564.65
     55.0350	 3841.00	 3661.83	-1839.08	 2564.81
     55.0610	 3711.00	 3664.31	-1971.56	 2564.97
     55.0870	 3754.00	 3666.96	-1931.21	 2565.13
     55.1130	 3829.00	 3669.79	-1859.04	 2565.29
     55.1390	 3740.00	 3672.80	-1951.05	 2565.45
     55.1650	 3646.00	 3675.99	-2048.24	 2565.61
     55.1910	 3664.00	 3679.37	-2033.62	 2565.77
     55.2170	 3677.00	 3682.93	-2024.18	 2565.93
     55.2430	 3682.00	 3686.68	-2022.93	 2566.09
     55.2690	 3726.00	 3690.63	-1982.88	 2566.25
     55.2950	 3790.00	 3694.76	-1923.01	 2566.41
     55.3210	 3715.00	 3699.09	-2002.34	 2566.57
     55.3470	 3728.00	 3703.61	-1993.86	 2566.73
     55.3730	 3725.00	 3708.34	-2001.59	 2566.89
     55.3990	 3750.00	 3713.27	-1981.52	 2567.05
     55.4250	 3823.00	 3718.40	-1913.65	 2567.21
     55.4510	 3714.00	 3723.73	-2027.98	 2567.37
     55.4770	 3771.00	 3729.27	-1976.52	 2567.53
     55.5030	 3886.00	 3735.03	-1867.28	 2567.69
     55.5290	 3869.00	 3740.99	-1890.24	 2567.85
     55.5550	 3760.00	 3747.17	-2005.42	 2568.01
     55.5810	 3808.00	 3753.57	-1963.82	 2568.17
     55.6070	 3869.00	 3760.18	-1909.43	 2568.33
     55.6330	 3780.00	 3767.01	-2005.26	 2568.49
     55.6590	 3748.00	 3774.07	-2044.32	 2568.65
     55.6850	 3777.00	 3781.34	-2022.59	 2568.81
     55.7110	 3823.00	 3788.84	-1984.09	 2568.97
     55.7370	 3791.00	 3796.56	-2023.81	 2569.13
     55.7630	 3762.00	 3804.50	-2060.75	 2569.29
     55.7890	 3806.00	 3812.67	-2024.92	 2569.45
     55.8150	 3814.00	 3821.06	-2025.31	 2569.61
     55.8410	 3810.00	 3829.67	-2037.92	 2569.77
     55.8670	 3809.00	 3838.51	-2047.76	 2569.93
     55.8930	 3792.00	 3847.56	-2073.81	 2570.09
     55.9190	 3780.00	 3856.83	-2095.08	 2570.25
     55.9450	 3846.00	 3866.32	-2038.57	 2570.41
     55.9710	 3934.00	 3876.01	-1960.26	 2570.58
     55.9970	 3929.00	 3885.92	-1975.17	 2570.74
     56.0230	 3901.00	 3896.02	-2013.27	 2570.90
     56.0490	 3893.00	 3906.31	-2031.56	 2571.06
     56.0750	 3904.00	 3916.79	-2031.04	 2571.22
     56.1010	 3956.00	 3927.45	-1989.70	 2571.38
     56.1270	 3905.00	 3938.28	-2051.53	 2571.54
     56.1530	 3866.00	 3949.27	-2101.52	 2571.70
     56.1790	 3939.00	 3960.40	-2039.65	 2571.86
     56.2050	 3980.00	 3971.67	-2009.92	 2572.02
     56.2310	 3969.00	 3983.05	-2032.30	 2572.18
     56.2570	 3897.00	 3994.54	-2115.79	 2572.34
     56.2830	 3890.00	 4006.11	-2134.36	 2572.50
     56.3090	 3990.00	 4017.75	-2046.00	 2572.66
     56.3350	 3987.00	 4029.43	-2060.68	 2572.82
     56.3610	 3995.00	 4041.14	-2064.39	 2572.98
     56.3870	 4098.00	 4052.84	-1973.09	 2573.14
     56.4130	 3980.00	 4064.52	-2102.77	 2573.30
     56.4390	 3967.00	 4076.15	-2127.40	 2573.46
     56.4650	 3996.00	 4087.70	-2109.95	 2573.62
     56.4910	 3974.00	 4099.14	-2143.39	 2573.78
     56.5170	 3986.00	 4110.43	-2142.68	 2573.94
     56.5430	 4076.00	 4121.55	-2063.80	 2574.10
     56.5690	 4105.00	 4132.46	-2045.71	 2574.26
     56.5950	 4109.00	 4143.14	-2052.39	 2574.42
     56.6210	 4114.00	 4154.04	-2058.29	 2575.09
     56.6470	 4138.00	 4164.78	-2045.03	 2575.91
     56.6730	 4006.00	 4175.18	-2187.43	 2576.74
     56.6990	 4048.00	 4185.19	-2155.44	 2577.57
     56.7250	 4254.00	 4194.78	-1959.03	 2578.39
     56.7510	 4097.00	 4203.91	-2125.16	 2579.22
     56.7770	 4053.00	 4212.55	-2177.80	 2580.04
     56.8030	 3988.00	 4220.66	-2250.91	 2580.87
     56.8290	 4090.00	 4228.21	-2156.46	 2581.69
     56.8550	 4155.00	 4235.17	-2098.42	 2582.52
     56.8810	 4057.00	 4241.51	-2202.76	 2583.35
     56.9070	 4113.00	 4247.20	-2152.45	 2584.17
     56.9330	 4204.00	 4252.23	-2066.48	 2585.00
     56.9590	 4150.00	 4256.56	-2124.81	 2585.82
     56.9850	 4280.00	 4260.18	-1998.43	 2586.65
     57.0110	 4211.00	 4263.08	-2070.33	 2587.47
     57.0370	 4223.00	 4265.23	-2060.48	 2588.30
     57.0630	 4224.00	 4266.65	-2060.90	 2589.13
     57.0890	 4077.00	 4267.31	-2208.56	 2589.95
     57.1150	 4145.00	 4267.22	-2140.47	 2590.78
     57.1410	 4195.00	 4266.39	-2089.64	 2591.60
     57.1670	 4244.00	 4264.81	-2039.06	 2592.43
     57.1930	 4130.00	 4262.51	-2150.76	 2593.26
     57.2190	 4329.00	 4259.48	-1948.73	 2594.08
     57.2450	 4217.00	 4255.76	-2057.01	 2594.91
     57.2710	 4241.00	 4251.36	-2028.61	 2595.73
     57.2970	 4219.00	 4246.30	-2045.55	 2596.56
     57.3230	 4408.00	 4240.61	-1850.86	 2597.38
     57.3490	 4316.00	 4234.32	-1936.57	 2598.21
     57.3750	 4260.00	 4227.46	-1985.71	 2599.04
     57.4010	 4210.00	 4220.05	-2028.30	 2599.86
     57.4270	 4178.00	 4212.14	-2052.39	 2600.69
     57.4530	 4081.00	 4203.75	-2141.00	 2601.51
     57.4790	 4118.00	 4194.92	-2095.17	 2602.34
     57.5050	 4169.00	 4185.70	-2034.95	 2603.17
     57.5310	 4110.00	 4176.10	-2084.35	 2603.99
     57.5570	 4169.00	 4166.17	-2015.42	 2604.82
     57.5830	 4144.00	 4155.95	-2030.20	 2605.64
     57.6090	 4091.00	 4145.47	-2072.72	 2606.47
     57.6350	 4212.00	 4134.76	-1941.01	 2607.29
     57.6610	 4160.00	 4123.86	-1982.11	 2608.12
     57.6870	 4070.00	 4112.80	-2061.05	 2608.95
     57.7130	 4164.00	 4101.61	-1955.86	 2609.77
     57.7390	 4084.00	 4090.32	-2024.57	 2610.60
     57.7650	 4025.00	 4078.96	-2072.21	 2611.42
     57.7910	 4091.00	 4067.55	-1994.80	 2612.25
     57.8170	 4103.00	 4056.12	-1971.37	 2613.08
     57.8430	 4028.00	 4044.70	-2034.95	 2613.90
     57.8690	 4038.00	 4033.31	-2013.56	 2614.73
     57.8950	 4019.00	 4021.96	-2021.21	 2615.55
     57.9210	 4141.00	 4010.68	-1887.93	 2616.38
     57.9470	 4165.00	 3999.48	-1852.73	 2617.20
     57.9730	 4088.00	 3988.39	-1918.64	 2618.03
     57.9990	 3993.00	 3977.41	-2002.66	 2618.86
     58.0250	 4056.00	 3966.55	-1928.80	 2619.68
     58.0510	 4078.00	 3955.84	-1896.09	 2620.51
     58.0770	 4028.00	 3945.28	-1935.53	 2621.33
     58.1030	 4123.00	 3934.87	-1830.12	 2622.16
     58.1290	 4057.00	 3924.63	-1885.88	 2622.98
     58.1550	 3964.00	 3914.57	-1968.82	 2623.81
     58.1810	 4069.00	 3904.69	-1853.94	 2624.64
     58.2070	 4047.00	 3895.00	-1866.25	 2625.46
     58.2330	 3956.00	 3885.49	-1947.74	 2626.29
     58.2590	 3932.00	 3876.18	-1962.43	 2627.11
     58.2850	 3986.00	 3867.07	-1899.32	 2627.94
     58.3110	 3956.00	 3858.15	-1920.40	 2628.77
     58.3370	 3963.00	 3849.44	-1904.69	 2629.59
     58.3630	 3991.00	 3840.92	-1868.17	 2630.42
     58.3890	 3994.00	 3832.61	-1856.86	 2631.24
     58.4150	 3999.00	 3824.50	-1843.75	 2632.07
     58.4410	 3949.00	 3816.59	-1885.84	 2632.89
     58.4670	 3916.00	 3808.87	-1911.12	 2633.72
     58.4930	 3866.00	 3801.36	-1953.61	 2634.55
     58.5190	 3772.00	 3794.04	-2040.29	 2635.37
     58.5450	 3813.00	 3786.92	-1992.17	 2636.20
     58.5710	 3844.00	 3779.99	-1954.24	 2637.02
     58.5970	 3849.00	 3773.25	-1942.50	 2637.85
     58.6230	 3884.00	 3766.70	-1900.95	 2638.68
     58.6490	 3943.00	 3760.33	-1835.58	 2639.50
     58.6750	 3900.00	 3754.14	-1872.39	 2640.33
     58.7010	 3805.00	 3748.14	-1961.39	 2641.15
     58.7270	 3812.00	 3742.31	-1948.56	 2641.98
     58.7530	 3869.00	 3736.65	-1885.90	 2642.80
     58.7790	 3812.00	 3731.15	-1937.40	 2643.62
     58.8050	 3750.00	 3725.50	-1993.75	 2644.11
     58.8310	 3786.00	 3720.01	-1952.26	 2644.60
     58.8570	 3782.00	 3714.68	-1950.93	 2645.09
     58.8830	 3786.00	 3709.52	-1941.77	 2645.58
     58.9090	 3795.00	 3704.50	-1927.75	 2646.07
     58.9350	 3788.00	 3699.64	-1929.89	 2646.56
     58.9610	 3735.00	 3694.92	-1978.17	 2647.05
     58.9870	 3753.00	 3690.36	-1955.61	 2647.54
     59.0130	 3773.00	 3685.93	-1931.18	 2648.04
     59.0390	 3716.00	 3681.65	-1983.90	 2648.53
     59.0650	 3763.00	 3677.50	-1932.75	 2649.02
     59.0910	 3789.00	 3673.49	-1902.74	 2649.51
     59.1170	 3804.00	 3669.61	-1883.86	 2650.00
     59.1430	 3715.00	 3665.85	-1969.10	 2650.49
     59.1690	 3734.00	 3662.23	-1946.48	 2650.98
     59.1950	 3777.00	 3658.73	-1899.98	 2651.47
     59.2210	 3707.00	 3655.35	-1966.60	 2651.96
     59.2470	 3702.00	 3652.09	-1968.34	 2652.45
     59.2730	 3718.00	 3648.94	-1949.19	 2652.94
     59.2990	 3613.00	 3645.91	-2051.16	 2653.43
     59.3250	 3702.00	 3642.99	-1959.24	 2653.92
     59.3510	 3732.00	 3640.19	-1926.44	 2654.41
     59.3770	 3713.00	 3637.49	-1942.74	 2654.91
     59.4030	 3576.00	 3634.90	-2077.15	 2655.40
     59.4290	 3672.00	 3632.41	-1978.66	 2655.89
     59.4550	 3718.00	 3630.02	-1930.27	 2656.38
     59.4810	 3582.00	 3627.74	-2063.99	 2656.87
     59.5070	 3639.00	 3625.55	-2004.80	 2657.36
     59.5330	 3664.00	 3623.46	-1977.71	 2657.85
     59.5590	 3710.00	 3621.47	-1929.72	 2658.34
     59.5850	 3770.00	 3619.58	-1867.83	 2658.83
     59.6110	 3714.00	 3617.77	-1922.02	 2659.32
     59.6370	 3637.00	 3616.06	-1997.31	 2659.81
     59.6630	 3567.00	 3614.44	-2065.69	 2660.30
     59.6890	 3670.00	 3612.91	-1961.16	 2660.79
     59.7150	 3658.00	 3611.47	-1971.72	 2661.28
     59.7410	 3592.00	 3610.12	-2036.37	 2661.78
     59.7670	 3573.00	 3608.52	-2053.77	 2661.93
     59.7930	 3513.00	 3606.62	-2111.87	 2661.70
     59.8190	 3543.00	 3604.81	-2080.06	 2661.47
     59.8450	 3661.00	 3603.08	-1960.33	 2661.24
     59.8710	 3713.00	 3601.44	-1906.69	 2661.01
     59.8970	 3715.00	 3599.88	-1903.13	 2660.78
     59.9230	 3545.00	 3598.40	-2071.65	 2660.55
     59.9490	 3565.00	 3597.01	-2050.26	 2660.32
     59.9750	 3527.00	 3595.70	-2086.95	 2660.08
     60.0010	 3626.00	 3594.48	-1986.73	 2659.85
     60.0270	 3573.00	 3593.34	-2038.59	 2659.62
     60.0530	 3522.00	 3592.28	-2088.53	 2659.39
     60.0790	 3582.00	 3591.30	-2027.55	 2659.16
     60.1050	 3574.00	 3590.41	-2034.66	 2658.93
     60.1310	 3490.00	 3589.60	-2117.85	 2658.70
     60.1570	 3522.00	 3588.88	-2085.13	 2658.47
     60.1830	 3486.00	 3588.25	-2120.50	 2658.24
     60.2090	 3412.00	 3587.69	-2193.94	 2658.00
     60.2350	 3486.00	 3587.23	-2119.48	 2657.77
     60.2610	 3625.00	 3586.85	-1980.10	 2657.54
     60.2870	 3395.00	 3586.56	-2209.81	 2657.31
     60.3130	 3485.00	 3586.37	-2119.62	 2657.08
     60.3390	 3410.00	 3586.26	-2194.51	 2656.85
     60.3650	 3384.00	 3586.24	-2220.49	 2656.62
     60.3910	 3345.00	 3586.32	-2259.57	 2656.39
     60.4170	 3526.00	 3586.49	-2078.74	 2656.16
     60.4430	 3574.00	 3586.76	-2031.01	 2655.92
     60.4690	 3517.00	 3587.13	-2088.38	 2655.69
     60.4950	 3484.00	 3587.60	-2121.85	 2655.46
     60.5210	 3544.00	 3588.18	-2062.43	 2655.23
     60.5470	 3488.00	 3588.86	-2119.11	 2655.00
     60.5730	 3419.00	 3589.65	-2188.90	 2654.77
     60.5990	 3449.00	 3590.55	-2159.80	 2654.54
     60.6250	 3471.00	 3591.56	-2138.81	 2654.31
     60.6510	 3604.00	 3592.69	-2006.94	 2654.08
     60.6770	 3524.00	 3593.94	-2088.19	 2653.84
     60.7030	 3542.00	 3595.32	-2071.57	 2653.61
     60.7290	 3507.00	 3596.83	-2108.08	 2653.38
     60.7550	 3531.00	 3598.47	-2085.72	 2653.15
     60.7810	 3513.00	 3600.24	-2105.49	 2652.92
     60.8070	 3541.00	 3602.16	-2079.41	 2652.69
     60.8330	 3543.00	 3604.23	-2079.48	 2652.46
     60.8590	 3563.00	 3606.45	-2061.70	 2652.23
     60.8850	 3524.00	 3608.83	-2103.08	 2652.00
     60.9110	 3473.00	 3611.37	-2156.62	 2651.76
     60.9370	 3522.00	 3614.09	-2110.34	 2651.53
     60.9630	 3546.00	 3616.99	-2089.24	 2651.30
     60.9890	 3614.00	 3620.07	-2024.32	 2651.07
     61.0150	 3594.00	 3623.35	-2047.60	 2650.84
     61.0410	 3540.00	 3626.83	-2105.08	 2650.61
     61.0670	 3573.00	 3630.53	-2075.78	 2650.38
     61.0930	 3546.00	 3634.45	-2106.70	 2650.15
     61.1190	 3522.00	 3638.60	-2134.85	 2649.92
     61.1450	 3522.00	 3643.00	-2139.25	 2649.68
     61.1710	 3518.00	 3647.66	-2147.91	 2649.45
     61.1970	 3473.00	 3652.59	-2197.84	 2649.22
     61.2230	 3585.00	 3657.80	-2091.05	 2648.99
     61.2490	 3579.00	 3663.32	-2102.57	 2648.76
     61.2750	 3511.00	 3669.15	-2176.40	 2648.53
     61.3010	 3558.00	 3675.32	-2135.57	 2648.30
     61.3270	 3559.00	 3681.84	-2141.09	 2648.07
     61.3530	 3580.00	 3688.74	-2126.99	 2647.84
     61.3790	 3597.00	 3696.03	-2117.28	 2647.60
     61.4050	 3593.00	 3703.74	-2128.99	 2647.37
     61.4310	 3566.00	 3711.89	-2164.14	 2647.14
     61.4570	 3557.00	 3720.51	-2181.76	 2646.91
     61.4830	 3634.00	 3729.64	-2113.89	 2646.68
     61.5090	 3654.00	 3739.30	-2103.55	 2646.45
     61.5350	 3605.00	 3749.52	-2162.77	 2646.22
     61.5610	 3609.00	 3760.35	-2169.60	 2645.99
     61.5870	 3649.00	 3771.82	-2141.07	 2645.76
     61.6130	 3669.00	 3783.98	-2133.23	 2645.52
     61.6390	 3682.00	 3796.86	-2133.11	 2645.29
     61.6650	 3643.00	 3810.54	-2185.79	 2645.06
     61.6910	 3608.00	 3825.06	-2235.31	 2644.83
     61.7170	 3717.00	 3840.47	-2141.72	 2644.60
     61.7430	 3777.00	 3856.84	-2098.09	 2644.37
     61.7690	 3797.00	 3874.25	-2095.50	 2644.14
     61.7950	 3781.00	 3892.77	-2130.02	 2643.91
     61.8210	 3795.00	 3912.47	-2135.72	 2643.68
     61.8470	 3863.00	 3933.45	-2088.70	 2643.44
     61.8730	 3835.00	 3955.81	-2139.06	 2643.21
     61.8990	 3935.00	 3979.64	-2062.89	 2642.98
     61.9250	 3927.00	 4005.06	-2096.31	 2642.75
     61.9510	 4002.00	 4032.19	-2048.44	 2642.52
     61.9770	 4042.00	 4061.16	-2037.41	 2642.29
     62.0030	 4133.00	 4092.10	-1977.35	 2642.06
     62.0290	 4203.00	 4125.17	-1940.42	 2641.83
     62.0550	 4165.00	 4160.53	-2013.78	 2641.60
     62.0810	 4238.00	 4198.34	-1978.59	 2641.36
     62.1070	 4293.00	 4238.78	-1964.03	 2641.13
     62.1330	 4472.00	 4282.05	-1828.30	 2640.90
     62.1590	 4521.00	 4328.32	-1825.57	 2640.67
     62.1850	 4528.00	 4377.82	-1868.07	 2640.44
     62.2110	 4556.00	 4430.74	-1892.99	 2640.21
     62.2370	 4762.00	 4487.27	-1743.52	 2639.98
     62.2630	 4919.00	 4547.64	-1646.89	 2639.75
     62.2890	 4885.00	 4612.01	-1745.26	 2639.52
     62.3150	 4866.00	 4680.55	-1832.80	 2639.28
     62.3410	 5020.00	 4753.38	-1751.63	 2639.05
     62.3670	 5164.00	 4830.59	-1684.84	 2638.82
     62.3930	 5027.00	 4912.18	-1903.43	 2638.59
     62.4190	 5256.00	 4998.08	-1760.33	 2638.36
     62.4450	 5347.00	 5088.09	-1759.34	 2638.13
     62.4710	 5498.00	 5181.91	-1702.16	 2637.90
     62.4970	 5452.00	 5279.03	-1845.28	 2637.67
     62.5230	 5501.00	 5378.77	-1896.02	 2637.44
     62.5490	 5682.00	 5480.20	-1816.45	 2637.21
     62.5750	 5587.00	 5582.21	-2013.46	 2636.97
     62.6010	 5732.00	 5683.43	-1969.68	 2636.74
     62.6270	 5765.00	 5782.24	-2035.49	 2636.51
     62.6530	 5966.00	 5876.84	-1929.09	 2636.28
     62.6790	 6019.00	 5965.33	-1964.58	 2636.05
     62.7050	 6011.00	 6045.72	-2052.97	 2635.82
     62.7310	 5964.00	 6116.08	-2170.33	 2635.59
     62.7570	 5933.00	 6174.60	-2259.85	 2635.36
     62.7830	 6146.00	 6219.79	-2092.04	 2635.13
     62.8090	 6030.00	 6250.45	-2238.70	 2634.89
     62.8350	 6074.00	 6265.82	-2210.07	 2634.66
     62.8610	 6131.00	 6265.57	-2152.82	 2634.43
     62.8870	 5973.00	 6249.83	-2295.08	 2634.20
     62.9130	 6018.00	 6219.15	-2219.40	 2633.97
     62.9390	 5911.00	 6174.47	-2281.72	 2633.74
     62.9650	 5851.00	 6117.01	-2284.26	 2633.51
     62.9910	 5866.00	 6048.25	-2200.50	 2633.28
     63.0170	 5899.00	 5969.82	-2089.07	 2633.05
     63.0430	 5991.00	 5883.48	-1910.73	 2632.81
     63.0690	 5820.00	 5791.00	-1989.25	 2632.58
     63.0950	 5700.00	 5694.09	-2012.34	 2632.35
     63.1210	 5685.00	 5594.38	-1927.63	 2632.12
     63.1470	 5719.00	 5493.38	-1792.63	 2631.89
     63.1730	 5590.00	 5392.41	-1820.66	 2631.66
     63.1990	 5509.00	 5292.58	-1801.83	 2631.43
     63.2250	 5320.00	 5194.84	-1893.09	 2631.20
     63.2510	 5281.00	 5099.94	-1837.19	 2630.97
     63.2770	 5224.00	 5008.41	-1802.66	 2630.73
     63.3030	 5140.00	 4920.67	-1798.92	 2630.50
     63.3290	 5110.00	 4836.98	-1745.23	 2630.27
     63.3550	 4989.00	 4757.49	-1786.74	 2630.04
     63.3810	 4861.00	 4682.22	-1839.47	 2629.81
     63.4070	 4864.00	 4611.15	-1765.40	 2629.58
     63.4330	 4829.00	 4544.20	-1733.45	 2629.35
     63.4590	 4716.00	 4481.25	-1783.50	 2629.12
     63.4850	 4628.00	 4422.11	-1812.36	 2628.89
     63.5110	 4560.00	 4366.63	-1824.88	 2628.65
     63.5370	 4469.00	 4314.60	-1863.85	 2628.42
     63.5630	 4373.00	 4265.85	-1911.10	 2628.19
     63.5890	 4380.00	 4220.16	-1858.41	 2627.96
     63.6150	 4245.00	 4177.34	-1950.59	 2627.73
     63.6410	 4136.00	 4137.21	-2019.46	 2627.50
     63.6670	 4158.00	 4099.60	-1959.85	 2627.27
     63.6930	 4123.00	 4064.32	-1959.57	 2627.04
     63.7190	 4078.00	 4031.22	-1971.47	 2626.81
     63.7450	 3990.00	 4000.15	-2028.40	 2626.57
     63.7710	 3938.00	 3970.97	-2051.22	 2626.34
     63.7970	 3880.00	 3943.54	-2081.79	 2626.11
     63.8230	 3780.00	 3917.73	-2155.98	 2625.88
     63.8490	 3790.00	 3893.44	-2121.69	 2625.65
     63.8750	 3815.00	 3870.56	-2073.81	 2625.42
     63.9010	 3789.00	 3848.99	-2078.24	 2625.19
     63.9270	 3829.00	 3828.63	-2017.88	 2624.96
     63.9530	 3861.00	 3809.41	-1966.66	 2624.73
     63.9790	 3810.00	 3791.25	-1999.50	 2624.49
     64.0050	 3733.00	 3774.06	-2059.31	 2624.26
     64.0310	 3709.00	 3757.80	-2067.05	 2624.03
     64.0570	 3667.00	 3742.38	-2093.63	 2623.80
     64.0830	 3600.00	 3727.77	-2146.02	 2623.57
     64.1090	 3650.00	 3713.90	-2082.15	 2623.34
     64.1350	 3679.00	 3700.73	-2039.98	 2623.11
     64.1610	 3620.00	 3688.21	-2086.46	 2622.88
     64.1870	 3581.00	 3676.30	-2113.55	 2622.65
     64.2130	 3558.00	 3664.96	-2125.21	 2622.41
     64.2390	 3588.00	 3654.16	-2084.41	 2622.18
     64.2650	 3664.00	 3643.87	-1998.12	 2621.95
     64.2910	 3641.00	 3634.04	-2011.29	 2621.72
     64.3170	 3667.00	 3624.66	-1975.91	 2621.49
     64.3430	 3626.00	 3615.70	-2007.95	 2621.26
     64.3690	 3536.00	 3607.13	-2089.38	 2621.03
     64.3950	 3605.00	 3598.93	-2012.18	 2620.80
     64.4210	 3556.00	 3591.09	-2053.34	 2620.57
     64.4470	 3589.00	 3583.57	-2012.82	 2620.33
     64.4730	 3563.00	 3576.36	-2031.61	 2620.10
     64.4990	 3528.00	 3569.45	-2059.70	 2619.87
     64.5250	 3563.00	 3562.81	-2018.06	 2619.64
     64.5510	 3521.00	 3556.44	-2053.69	 2619.41
     64.5770	 3594.00	 3550.32	-1974.57	 2619.18
     64.6030	 3649.00	 3544.43	-1913.68	 2618.95
     64.6290	 3547.00	 3538.78	-2010.03	 2618.72
     64.6550	 3500.00	 3533.33	-2051.58	 2618.49
     64.6810	 3495.00	 3528.08	-2051.33	 2618.25
     64.7070	 3504.00	 3523.03	-2037.28	 2618.02
     64.7330	 3586.00	 3518.16	-1950.41	 2617.79
     64.7590	 3518.00	 3513.46	-2013.71	 2617.56
     64.7850	 3513.00	 3508.92	-2014.17	 2617.33
     64.8110	 3457.00	 3504.55	-2065.80	 2617.10
     64.8370	 3481.00	 3500.33	-2037.58	 2616.87
     64.8630	 3461.00	 3496.24	-2053.49	 2616.64
     64.8890	 3509.00	 3492.30	-2001.55	 2616.41
     64.9150	 3479.00	 3488.48	-2027.73	 2616.17
     64.9410	 3492.00	 3484.79	-2011.04	 2615.94
     64.9670	 3487.00	 3481.22	-2012.47	 2615.71
     64.9930	 3449.00	 3477.76	-2047.01	 2615.48
     65.0190	 3401.00	 3474.41	-2091.66	 2615.25
     65.0450	 3454.00	 3471.16	-2035.41	 2615.02
     65.0710	 3477.00	 3468.02	-2009.27	 2614.79
     65.0970	 3484.00	 3464.97	-1999.22	 2614.56
     65.1230	 3482.00	 3462.01	-1998.26	 2614.33
     65.1490	 3441.00	 3459.14	-2036.39	 2614.09
     65.1750	 3389.00	 3456.35	-2085.60	 2613.86
     65.2010	 3376.00	 3453.64	-2095.89	 2613.63
     65.2270	 3366.00	 3451.02	-2103.27	 2613.40
     65.2530	 3484.00	 3448.46	-1982.71	 2613.17
     65.2790	 3432.00	 3445.98	-2032.23	 2612.94
     65.3050	 3432.00	 3443.57	-2029.82	 2612.71
     65.3310	 3370.00	 3441.22	-2089.47	 2612.48
     65.3570	 3452.00	 3438.94	-2005.19	 2612.25
     65.3830	 3417.00	 3436.72	-2037.97	 2612.02
     65.4090	 3461.00	 3434.55	-1991.80	 2611.78
     65.4350	 3391.00	 3432.45	-2059.70	 2611.55
     65.4610	 3406.00	 3430.40	-2042.65	 2611.32
     65.4870	 3294.00	 3428.40	-2152.65	 2611.09
     65.5130	 3512.00	 3426.45	-1932.70	 2610.86
     65.5390	 3399.00	 3424.56	-2043.81	 2610.63
     65.5650	 3367.00	 3422.71	-2073.96	 2610.40
     65.5910	 3377.00	 3420.91	-2062.16	 2610.17
     65.6170	 3359.00	 3419.15	-2078.40	 2609.94
     65.6430	 3452.00	 3417.43	-1983.68	 2609.70
     65.6690	 3442.00	 3415.76	-1992.01	 2609.47
     65.6950	 3340.00	 3414.12	-2092.37	 2609.24
     65.7210	 3405.00	 3412.53	-2025.78	 2609.01
     65.7470	 3326.00	 3410.97	-2103.22	 2608.78
     65.7730	 3400.00	 3409.45	-2027.70	 2608.55
     65.7990	 3441.00	 3407.96	-1985.21	 2608.32
     65.8250	 3377.00	 3406.51	-2047.76	 2608.09
     65.8510	 3404.00	 3405.09	-2019.34	 2607.86
     65.8770	 3452.00	 3403.70	-1969.95	 2607.62
     65.9030	 3432.00	 3402.35	-1988.60	 2607.39
     65.9290	 3406.00	 3401.02	-2013.27	 2607.16
     65.9550	 3509.00	 3399.72	-1908.97	 2606.93
     65.9810	 3518.00	 3398.45	-1898.70	 2606.70
     66.0070	 3346.00	 3397.21	-2069.46	 2606.47
     66.0330	 3369.00	 3395.99	-2045.24	 2606.24
     66.0590	 3348.00	 3394.80	-2065.05	 2606.01
     66.0850	 3443.00	 3393.64	-1968.89	 2605.78
     66.1110	 3426.00	 3392.50	-1984.75	 2605.54
     66.1370	 3422.00	 3391.38	-1987.63	 2605.31
     66.1630	 3399.00	 3390.28	-2009.53	 2605.08
     66.1890	 3474.00	 3389.21	-1933.46	 2604.85
     66.2150	 3481.00	 3388.15	-1925.40	 2604.62
     66.2410	 3397.00	 3387.12	-2008.37	 2604.39
     66.2670	 3380.00	 3386.11	-2024.36	 2604.16
     66.2930	 3481.00	 3385.11	-1922.36	 2603.93
     66.3190	 3333.00	 3384.14	-2069.39	 2603.70
     66.3450	 3312.00	 3383.18	-2089.43	 2603.46
     66.3710	 3386.00	 3382.24	-2014.49	 2603.23
     66.3970	 3412.00	 3381.31	-1987.56	 2603.00
     66.4230	 3382.00	 3380.40	-2016.65	 2602.77
     66.4490	 3355.00	 3379.51	-2042.76	 2602.54
     66.4750	 3417.00	 3378.63	-1979.88	 2602.31
     66.5010	 3368.00	 3377.76	-2028.01	 2602.08
     66.5270	 3399.00	 3376.91	-1996.16	 2601.85
     66.5530	 3412.00	 3376.07	-1982.32	 2601.62
     66.5790	 3351.00	 3375.25	-2042.50	 2601.38
     66.6050	 3429.00	 3374.43	-1963.68	 2601.15
     66.6310	 3483.00	 3373.63	-1908.88	 2600.92
     66.6570	 3405.00	 3372.84	-1986.09	 2600.69
     66.6830	 3306.00	 3372.05	-2084.30	 2600.46
     66.7090	 3345.00	 3371.28	-2044.53	 2600.23
     66.7350	 3382.00	 3370.52	-2006.77	 2600.00
     66.7610	 3331.00	 3369.77	-2057.02	 2599.77
     66.7870	 3338.00	 3369.02	-2049.27	 2599.54
     66.8130	 3375.00	 3368.28	-2011.53	 2599.30
     66.8390	 3398.00	 3367.56	-1987.81	 2599.07
     66.8650	 3360.00	 3366.84	-2025.09	 2598.84
     66.8910	 3314.00	 3366.12	-2070.37	 2598.61
     66.9170	 3359.00	 3365.41	-2024.66	 2598.38
     66.9430	 3353.00	 3364.71	-2029.96	 2598.15
     66.9690	 3306.00	 3364.02	-2076.27	 2597.92
     66.9950	 3281.00	 3363.33	-2100.58	 2597.69
     67.0210	 3362.00	 3362.65	-2018.90	 2597.46
     67.0470	 3375.00	 3361.98	-2005.23	 2597.22
     67.0730	 3344.00	 3361.31	-2035.56	 2596.99
     67.0990	 3394.00	 3360.65	-1984.90	 2596.76
     67.1250	 3363.00	 3359.99	-2015.24	 2596.53
     67.1510	 3443.00	 3359.34	-1934.59	 2596.30
     67.1770	 3403.00	 3358.69	-1973.94	 2596.07
     67.2030	 3408.00	 3358.05	-1968.30	 2595.84
     67.2290	 3365.00	 3357.42	-2010.67	 2595.61
     67.2550	 3324.00	 3356.79	-2051.04	 2595.38
     67.2810	 3367.00	 3356.17	-2007.42	 2595.14
     67.3070	 3376.00	 3355.55	-1997.80	 2594.91
     67.3330	 3423.00	 3354.94	-1950.19	 2594.68
     67.3590	 3423.00	 3354.33	-1949.58	 2594.45
     67.3850	 3380.00	 3353.74	-1991.99	 2594.22
     67.4110	 3336.00	 3353.14	-2035.39	 2593.99
     67.4370	 3269.00	 3352.56	-2101.81	 2593.76
     67.4630	 3333.00	 3351.98	-2037.23	 2593.53
     67.4890	 3306.00	 3351.40	-2063.65	 2593.30
     67.5150	 3320.00	 3350.84	-2049.09	 2593.06
     67.5410	 3295.00	 3350.28	-2073.53	 2592.83
     67.5670	 3329.00	 3349.72	-2038.97	 2592.60
     67.5930	 3467.00	 3349.18	-1900.43	 2592.37
     67.6190	 3420.00	 3348.64	-1946.89	 2592.14
     67.6450	 3357.00	 3348.10	-2009.35	 2591.91
     67.6710	 3280.00	 3347.58	-2085.83	 2591.68
     67.6970	 3352.00	 3347.06	-2013.31	 2591.45
     67.7230	 3335.00	 3346.55	-2029.80	 2591.22
     67.7490	 3409.00	 3346.05	-1955.30	 2590.98
     67.7750	 3367.00	 3345.56	-1996.81	 2590.75
     67.8010	 3350.00	 3345.09	-2013.34	 2590.55
     67.8270	 3390.00	 3344.69	-1972.94	 2590.39
     67.8530	 3330.00	 3344.29	-2032.54	 2590.23
     67.8790	 3378.00	 3343.91	-1984.16	 2590.08
     67.9050	 3374.00	 3343.53	-1987.78	 2589.92
     67.9310	 3303.00	 3343.16	-2058.41	 2589.77
     67.9570	 3332.00	 3342.80	-2029.05	 2589.61
     67.9830	 3312.00	 3342.44	-2048.69	 2589.46
     68.0090	 3236.00	 3342.09	-2124.34	 2589.30
     68.0350	 3318.00	 3341.76	-2042.01	 2589.15
     68.0610	 3162.00	 3341.43	-2197.68	 2588.99
     68.0870	 3305.00	 3341.11	-2054.36	 2588.83
     68.1130	 3365.00	 3340.80	-1994.05	 2588.68
     68.1390	 3384.00	 3340.49	-1974.74	 2588.52
     68.1650	 3292.00	 3340.20	-2066.45	 2588.37
     68.1910	 3225.00	 3339.91	-2133.16	 2588.21
     68.2170	 3222.00	 3339.64	-2135.89	 2588.06
     68.2430	 3342.00	 3339.37	-2015.62	 2587.90
     68.2690	 3357.00	 3339.11	-2000.36	 2587.74
     68.2950	 3360.00	 3338.86	-1997.11	 2587.59
     68.3210	 3287.00	 3338.62	-2069.87	 2587.43
     68.3470	 3269.00	 3338.38	-2087.63	 2587.28
     68.3730	 3271.00	 3338.16	-2085.41	 2587.12
     68.3990	 3266.00	 3337.95	-2090.20	 2586.97
     68.4250	 3303.00	 3337.74	-2052.99	 2586.81
     68.4510	 3313.00	 3337.55	-2042.80	 2586.66
     68.4770	 3272.00	 3337.36	-2083.61	 2586.50
     68.5030	 3324.00	 3337.18	-2031.43	 2586.34
     68.5290	 3350.00	 3337.02	-2005.27	 2586.19
     68.5550	 3293.00	 3336.86	-2062.11	 2586.03
     68.5810	 3354.00	 3336.71	-2000.96	 2585.88
     68.6070	 3359.00	 3336.57	-1995.82	 2585.72
     68.6330	 3329.00	 3336.44	-2025.69	 2585.57
     68.6590	 3384.00	 3336.05	-1970.30	 2585.41
     68.6850	 3343.00	 3335.94	-2011.19	 2585.26
     68.7110	 3372.00	 3335.85	-1982.10	 2585.10
     68.7370	 3383.00	 3335.76	-1971.01	 2584.94
     68.7630	 3312.00	 3335.54	-2041.79	 2584.79
     68.7890	 3338.00	 3335.48	-2015.73	 2584.63
     68.8150	 3409.00	 3335.42	-1944.67	 2584.48
     68.8410	 3325.00	 3335.37	-2028.62	 2584.32
     68.8670	 3299.00	 3335.34	-2054.59	 2584.17
     68.8930	 3322.00	 3335.31	-2031.56	 2584.01
     68.9190	 3289.00	 3335.30	-2064.55	 2583.86
     68.9450	 3323.00	 3335.29	-2030.54	 2583.70
     68.9710	 3362.00	 3335.30	-1991.55	 2583.54
     68.9970	 3329.00	 3335.32	-2024.57	 2583.39
     69.0230	 3407.00	 3335.35	-1946.60	 2583.23
     69.0490	 3427.00	 3335.40	-1926.65	 2583.08
     69.0750	 3347.00	 3335.45	-2006.70	 2582.92
     69.1010	 3367.00	 3335.52	-1986.77	 2582.77
     69.1270	 3422.00	 3335.59	-1931.84	 2582.61
     69.1530	 3394.00	 3335.68	-1959.93	 2582.46
     69.1790	 3383.00	 3335.79	-1971.04	 2582.30
     69.2050	 3413.00	 3335.90	-1941.15	 2582.14
     69.2310	 3428.00	 3336.03	-1926.28	 2581.99
     69.2570	 3409.00	 3336.17	-1945.42	 2581.83
     69.2830	 3392.00	 3336.33	-1962.58	 2581.68
     69.3090	 3415.00	 3336.49	-1939.74	 2581.52
     69.3350	 3449.00	 3336.67	-1905.92	 2581.37
     69.3610	 3471.00	 3336.87	-1884.12	 2581.21
     69.3870	 3368.00	 3337.07	-1987.32	 2581.05
     69.4130	 3270.00	 3337.30	-2085.55	 2580.90
     69.4390	 3307.00	 3337.53	-2048.78	 2580.74
     69.4650	 3341.00	 3337.78	-2015.03	 2580.59
     69.4910	 3344.00	 3338.05	-2012.30	 2580.43
     69.5170	 3376.00	 3338.32	-1980.57	 2580.28
     69.5430	 3357.00	 3338.62	-1999.87	 2580.12
     69.5690	 3317.00	 3338.92	-2040.17	 2579.97
     69.5950	 3337.00	 3339.25	-2020.50	 2579.81
     69.6210	 3349.00	 3339.58	-2008.83	 2579.65
     69.6470	 3381.00	 3339.94	-1977.19	 2579.50
     69.6730	 3386.00	 3340.30	-1972.55	 2579.34
     69.6990	 3374.00	 3340.69	-1984.94	 2579.19
     69.7250	 3362.00	 3341.08	-1997.33	 2579.03
     69.7510	 3327.00	 3341.50	-2032.75	 2578.88
     69.7770	 3341.00	 3341.93	-2019.18	 2578.72
     69.8030	 3373.00	 3342.37	-1987.62	 2578.57
     69.8290	 3375.00	 3342.83	-1986.08	 2578.41
     69.8550	 3360.00	 3343.30	-2001.55	 2578.25
     69.8810	 3306.00	 3343.79	-2056.04	 2578.10
     69.9070	 3263.00	 3344.29	-2099.54	 2577.94
     69.9330	 3339.00	 3344.81	-2024.06	 2577.79
     69.9590	 3327.00	 3345.34	-2036.59	 2577.63
     69.9850	 3319.00	 3345.89	-2045.14	 2577.48
     70.0110	 3322.00	 3346.44	-2042.69	 2577.32
     70.0370	 3304.00	 3347.02	-2061.27	 2577.17
     70.0630	 3274.00	 3347.60	-2091.85	 2577.01
     70.0890	 3343.00	 3348.20	-2023.45	 2576.85
     70.1150	 3318.00	 3348.81	-2049.06	 2576.70
     70.1410	 3298.00	 3349.43	-2069.68	 2576.54
     70.1670	 3260.00	 3350.06	-2108.31	 2576.39
     70.1930	 3296.00	 3350.69	-2072.94	 2576.23
     70.2190	 3332.00	 3351.34	-2037.59	 2576.08
     70.2450	 3239.00	 3352.00	-2131.25	 2575.92
     70.2710	 3333.00	 3352.66	-2037.91	 2575.77
     70.2970	 3249.00	 3353.33	-2122.58	 2575.61
     70.3230	 3279.00	 3354.00	-2093.25	 2575.45
     70.3490	 3375.00	 3354.67	-1997.92	 2575.30
     70.3750	 3352.00	 3355.35	-2021.60	 2575.14
     70.4010	 3324.00	 3356.02	-2050.27	 2574.99
     70.4270	 3409.00	 3356.70	-1965.95	 2574.83
     70.4530	 3347.00	 3357.37	-2028.62	 2574.68
     70.4790	 3323.00	 3358.04	-2053.29	 2574.52
     70.5050	 3340.00	 3358.70	-2036.95	 2574.36
     70.5310	 3335.00	 3359.35	-2042.60	 2574.21
     70.5570	 3351.00	 3359.99	-2027.24	 2574.05
     70.5830	 3225.00	 3360.62	-2153.87	 2573.90
     70.6090	 3379.00	 3361.24	-2000.49	 2573.74
     70.6350	 3323.00	 3361.84	-2057.09	 2573.59
     70.6610	 3254.00	 3362.43	-2126.68	 2573.43
     70.6870	 3327.00	 3362.99	-2054.24	 2573.28
     70.7130	 3279.00	 3363.53	-2102.78	 2573.12
     70.7390	 3354.00	 3364.05	-2028.30	 2572.96
     70.7650	 3343.00	 3364.54	-2039.79	 2572.81
     70.7910	 3281.00	 3365.01	-2102.26	 2572.65
     70.8170	 3324.00	 3365.44	-2059.69	 2572.50
     70.8430	 3302.00	 3365.84	-2082.09	 2572.34
     70.8690	 3380.00	 3366.22	-2004.47	 2572.19
     70.8950	 3294.00	 3366.55	-2090.80	 2572.03
     70.9210	 3334.00	 3366.85	-2051.10	 2571.88
     70.9470	 3360.00	 3367.11	-2025.36	 2571.72
     70.9730	 3288.00	 3367.34	-2097.59	 2571.56
     70.9990	 3341.00	 3367.52	-2044.77	 2571.41
     71.0250	 3376.00	 3367.67	-2009.92	 2571.25
     71.0510	 3438.00	 3367.77	-1948.02	 2571.10
     71.0770	 3410.00	 3367.83	-1976.08	 2570.94
     71.1030	 3402.00	 3367.85	-1984.10	 2570.79
     71.1290	 3437.00	 3367.83	-1949.08	 2570.63
     71.1550	 3368.00	 3367.77	-2018.02	 2570.48
     71.1810	 3348.00	 3367.66	-2037.91	 2570.32
     71.2070	 3354.00	 3367.51	-2031.76	 2570.16
     71.2330	 3379.00	 3367.33	-2006.58	 2570.01
     71.2590	 3349.00	 3367.10	-2036.35	 2569.85
     71.2850	 3311.00	 3366.84	-2074.09	 2569.70
     71.3110	 3239.00	 3366.53	-2145.78	 2569.54
     71.3370	 3379.00	 3366.20	-2005.45	 2569.39
     71.3630	 3365.00	 3365.82	-2019.07	 2569.23
     71.3890	 3402.00	 3365.42	-1981.67	 2569.08
     71.4150	 3448.00	 3364.98	-1935.23	 2568.92
     71.4410	 3401.00	 3364.52	-1981.77	 2568.76
     71.4670	 3397.00	 3364.02	-1985.27	 2568.61
     71.4930	 3333.00	 3363.51	-2048.76	 2568.45
     71.5190	 3324.00	 3362.96	-2057.21	 2568.30
     71.5450	 3403.00	 3362.40	-1977.65	 2568.14
     71.5710	 3433.00	 3361.82	-1947.07	 2567.99
     71.5970	 3384.00	 3361.23	-1995.48	 2567.83
     71.6230	 3297.00	 3360.61	-2081.86	 2567.67
     71.6490	 3373.00	 3359.73	-2004.98	 2567.26
     71.6750	 3444.00	 3357.50	-1931.75	 2565.51
     71.7010	 3378.00	 3355.26	-1995.51	 2563.75
     71.7270	 3383.00	 3353.01	-1988.26	 2562.00
     71.7530	 3455.00	 3350.76	-1914.01	 2560.24
     71.7790	 3450.00	 3348.51	-1916.76	 2558.49
     71.8050	 3412.00	 3346.26	-1952.51	 2556.74
     71.8310	 3373.00	 3344.01	-1989.26	 2554.98
     71.8570	 3333.00	 3341.77	-2027.02	 2553.23
     71.8830	 3321.00	 3339.53	-2036.78	 2551.47
     71.9090	 3350.00	 3337.29	-2005.54	 2549.72
     71.9350	 3354.00	 3335.07	-1999.32	 2547.97
     71.9610	 3354.00	 3332.86	-1997.11	 2546.21
     71.9870	 3441.00	 3330.66	-1907.91	 2544.46
     72.0130	 3468.00	 3328.47	-1878.72	 2542.70
     72.0390	 3410.00	 3326.30	-1934.55	 2540.95
     72.0650	 3297.00	 3324.14	-2045.39	 2539.19
     72.0910	 3247.00	 3322.00	-2093.25	 2537.44
     72.1170	 3354.00	 3319.87	-1984.12	 2535.69
     72.1430	 3400.00	 3317.77	-1936.02	 2533.93
     72.1690	 3407.00	 3315.68	-1926.93	 2532.18
     72.1950	 3407.00	 3313.62	-1924.87	 2530.42
     72.2210	 3394.00	 3311.57	-1935.82	 2528.67
     72.2470	 3354.00	 3309.55	-1973.80	 2526.92
     72.2730	 3321.00	 3307.55	-2004.80	 2525.16
     72.2990	 3328.00	 3305.58	-1995.83	 2523.41
     72.3250	 3323.00	 3303.62	-1998.87	 2521.65
     72.3510	 3333.00	 3301.70	-1986.95	 2519.90
     72.3770	 3248.00	 3299.79	-2070.04	 2518.15
     72.4030	 3241.00	 3297.92	-2075.17	 2516.39
     72.4290	 3345.00	 3296.06	-1969.31	 2514.64
     72.4550	 3282.00	 3294.24	-2030.49	 2512.88
     72.4810	 3266.00	 3292.44	-2044.69	 2511.13
     72.5070	 3246.00	 3290.66	-2062.91	 2509.37
     72.5330	 3280.00	 3288.92	-2027.17	 2507.62
     72.5590	 3309.00	 3287.20	-1996.45	 2505.87
     72.5850	 3245.00	 3285.51	-2058.76	 2504.11
     72.6110	 3282.00	 3283.84	-2020.09	 2502.36
     72.6370	 3271.00	 3282.21	-2029.46	 2500.60
     72.6630	 3346.00	 3280.60	-1952.85	 2498.85
     72.6890	 3277.00	 3279.02	-2020.27	 2497.09
     72.7150	 3255.00	 3277.46	-2040.71	 2495.34
     72.7410	 3249.00	 3275.94	-2045.19	 2493.59
     72.7670	 3308.00	 3274.44	-1984.69	 2491.83
     72.7930	 3299.00	 3272.97	-1992.22	 2490.08
     72.8190	 3203.00	 3271.53	-2086.78	 2488.32
     72.8450	 3228.00	 3270.12	-2060.37	 2486.57
     72.8710	 3220.00	 3268.73	-2066.98	 2484.82
     72.8970	 3255.00	 3267.37	-2030.62	 2483.06
     72.9230	 3289.00	 3266.04	-1995.29	 2481.31
     72.9490	 3269.00	 3264.74	-2013.99	 2479.55
     72.9750	 3309.00	 3263.46	-1972.71	 2477.80
     73.0010	 3239.00	 3262.22	-2041.47	 2476.05
     73.0270	 3150.00	 3260.99	-2129.24	 2474.29
     73.0530	 3258.00	 3259.80	-2020.05	 2472.54
     73.0790	 3274.00	 3258.63	-2002.88	 2470.78
     73.1050	 3264.00	 3257.49	-2011.74	 2469.03
     73.1310	 3376.00	 3256.37	-1898.62	 2467.27
     73.1570	 3336.00	 3255.27	-1937.52	 2465.52
     73.1830	 3274.00	 3254.20	-1998.45	 2463.77
     73.2090	 3232.00	 3253.16	-2039.41	 2462.01
     73.2350	 3230.00	 3252.13	-2040.38	 2460.26
     73.2610	 3289.00	 3251.13	-1980.38	 2458.50
     73.2870	 3361.00	 3250.15	-1907.40	 2456.75
     73.3130	 3207.00	 3249.19	-2060.44	 2455.00
     73.3390	 3159.00	 3248.25	-2107.50	 2453.24
     73.3650	 3277.00	 3247.33	-1988.58	 2451.49
     73.3910	 3223.00	 3246.42	-2041.67	 2449.73
     73.4170	 3265.00	 3245.54	-1998.79	 2447.98
     73.4430	 3363.00	 3244.66	-1899.91	 2446.22
     73.4690	 3222.00	 3243.80	-2040.05	 2444.47
     73.4950	 3298.00	 3242.96	-1963.21	 2442.72
     73.5210	 3298.00	 3242.12	-1962.37	 2440.96
     73.5470	 3393.00	 3241.30	-1866.55	 2439.21
     73.5730	 3265.00	 3240.48	-1993.73	 2437.45
     73.5990	 3248.00	 3239.67	-2009.92	 2435.70
     73.6250	 3265.00	 3238.87	-1992.12	 2433.95
     73.6510	 3276.00	 3238.07	-1980.32	 2432.19
     73.6770	 3322.00	 3237.27	-1933.52	 2430.44
     73.7030	 3321.00	 3236.47	-1933.72	 2428.68
     73.7290	 3241.00	 3235.68	-2012.93	 2426.93
     73.7550	 3154.00	 3234.87	-2099.12	 2425.17
     73.7810	 3173.00	 3234.07	-2079.32	 2423.42
     73.8070	 3187.00	 3233.25	-2064.50	 2421.67
     73.8330	 3156.00	 3232.43	-2094.68	 2419.91
     73.8590	 3236.00	 3231.60	-2013.85	 2418.16
     73.8850	 3319.00	 3230.76	-1930.01	 2416.40
     73.9110	 3303.00	 3229.90	-1945.15	 2414.65
     73.9370	 3194.00	 3229.03	-2053.28	 2412.90
     73.9630	 3108.00	 3228.14	-2138.39	 2411.14
     73.9890	 3155.00	 3227.24	-2090.49	 2409.39
     74.0150	 3246.00	 3226.31	-1998.56	 2407.63
     74.0410	 3260.00	 3225.37	-1983.62	 2405.88
     74.0670	 3252.00	 3224.40	-1990.65	 2404.13
     74.0930	 3181.00	 3223.41	-2060.66	 2402.37
     74.1190	 3193.00	 3222.39	-2047.64	 2400.62
     74.1450	 3162.00	 3221.35	-2077.60	 2398.86
     74.1710	 3111.00	 3220.28	-2127.53	 2397.11
     74.1970	 3138.00	 3219.19	-2099.44	 2395.35
     74.2230	 3161.00	 3218.07	-2075.32	 2393.60
     74.2490	 3129.00	 3216.91	-2106.16	 2391.85
     74.2750	 3148.00	 3215.73	-2085.98	 2390.09
     74.3010	 3191.00	 3214.52	-2041.77	 2388.34
     74.3270	 3211.00	 3213.28	-2020.53	 2386.58
     74.3530	 3215.00	 3212.00	-2015.25	 2384.83
     74.3790	 3240.00	 3210.70	-1988.95	 2383.08
     74.4050	 3246.00	 3209.36	-1981.61	 2381.32
     74.4310	 3197.00	 3207.99	-2029.24	 2379.57
     74.4570	 3180.00	 3206.59	-2044.84	 2377.81
     74.4830	 3208.00	 3205.15	-2015.40	 2376.06
     74.5090	 3172.00	 3203.68	-2049.93	 2374.30
     74.5350	 3127.00	 3202.17	-2093.42	 2372.55
     74.5610	 3139.00	 3200.63	-2079.88	 2370.80
     74.5870	 3099.00	 3199.05	-2118.30	 2369.04
     74.6130	 3091.00	 3197.44	-2124.69	 2367.29
     74.6390	 3167.00	 3195.79	-2047.04	 2365.53
     74.6650	 3161.00	 3194.11	-2051.36	 2363.78
     74.6910	 3111.00	 3192.38	-2099.63	 2362.03
     74.7170	 3083.00	 3190.62	-2125.87	 2360.27
     74.7430	 3124.00	 3188.82	-2083.07	 2358.52
     74.7690	 3185.00	 3186.98	-2020.23	 2356.76
     74.7950	 3149.00	 3185.10	-2054.35	 2355.01
     74.8210	 3206.00	 3183.18	-1995.43	 2353.26
     74.8470	 3150.00	 3181.21	-2049.46	 2351.50
     74.8730	 3140.00	 3179.21	-2057.46	 2349.75
     74.8990	 3154.00	 3177.16	-2041.41	 2347.99
     74.9250	 3166.00	 3175.07	-2027.32	 2346.24
     74.9510	 3177.00	 3172.62	-2013.87	 2344.18
     74.9770	 3126.00	 3169.94	-2062.19	 2341.92
     75.0030	 3139.00	 3167.21	-2046.46	 2339.66
     75.0290	 3124.00	 3164.44	-2058.69	 2337.41
     75.0550	 3156.00	 3161.62	-2023.87	 2335.15
     75.0810	 3122.00	 3158.76	-2055.01	 2332.89
     75.1070	 3180.00	 3155.85	-1994.10	 2330.63
     75.1330	 3212.00	 3152.90	-1959.15	 2328.38
     75.1590	 3028.00	 3149.90	-2140.15	 2326.12
     75.1850	 3174.00	 3146.86	-1991.11	 2323.86
     75.2110	 3230.00	 3143.78	-1932.03	 2321.61
     75.2370	 3197.00	 3140.65	-1961.90	 2319.35
     75.2630	 3136.00	 3137.48	-2019.73	 2317.09
     75.2890	 3191.00	 3134.27	-1961.52	 2314.84
     75.3150	 3086.00	 3131.01	-2063.26	 2312.58
     75.3410	 3106.00	 3127.73	-2039.98	 2310.32
     75.3670	 3087.00	 3124.40	-2055.65	 2308.06
     75.3930	 3177.00	 3121.04	-1962.29	 2305.81
     75.4190	 3135.00	 3117.64	-2000.89	 2303.55
     75.4450	 3152.00	 3114.22	-1980.47	 2301.29
     75.4710	 3083.00	 3110.76	-2046.01	 2299.04
     75.4970	 3064.00	 3107.27	-2061.52	 2296.78
     75.5230	 3077.00	 3103.76	-2045.01	 2294.52
     75.5490	 3016.00	 3100.23	-2102.48	 2292.27
     75.5750	 3002.00	 3096.67	-2112.92	 2290.01
     75.6010	 3026.00	 3093.09	-2085.34	 2287.75
     75.6270	 3048.00	 3089.50	-2059.75	 2285.50
     75.6530	 3032.00	 3085.88	-2072.13	 2283.24
     75.6790	 3117.00	 3082.26	-1983.51	 2280.98
     75.7050	 3069.00	 3078.62	-2027.87	 2278.72
     75.7310	 3136.00	 3074.98	-1957.23	 2276.47
     75.7570	 3014.00	 3071.32	-2075.57	 2274.21
     75.7830	 3070.00	 3067.66	-2015.91	 2271.95
     75.8090	 3123.00	 3064.00	-1959.25	 2269.70
     75.8350	 3055.00	 3060.34	-2023.59	 2267.44
     75.8610	 3013.00	 3056.67	-2061.92	 2265.18
     75.8870	 3046.00	 3053.01	-2025.26	 2262.93
     75.9130	 3073.00	 3049.35	-1994.60	 2260.67
     75.9390	 3013.00	 3045.70	-2050.95	 2258.41
     75.9650	 3016.00	 3042.05	-2044.30	 2256.15
     75.9910	 3014.00	 3038.41	-2042.66	 2253.90
     76.0170	 3047.00	 3034.77	-2006.02	 2251.64
     76.0430	 3109.00	 3031.15	-1940.40	 2249.38
     76.0690	 2994.00	 3027.54	-2051.79	 2247.13
     76.0950	 3045.00	 3023.94	-1997.19	 2244.87
     76.1210	 3011.00	 3020.36	-2027.61	 2242.61
     76.1470	 3082.00	 3016.78	-1953.03	 2240.36
     76.1730	 3075.00	 3013.23	-1956.48	 2238.10
     76.1990	 3080.00	 3009.69	-1947.94	 2235.84
     76.2250	 3115.00	 3006.16	-1909.41	 2233.59
     76.2510	 2988.00	 3002.65	-2032.90	 2231.33
     76.2770	 2973.00	 2999.16	-2044.41	 2229.07
     76.3030	 2960.00	 2995.69	-2053.94	 2226.81
     76.3290	 3014.00	 2992.23	-1996.48	 2224.56
     76.3550	 2922.00	 2988.79	-2085.04	 2222.30
     76.3810	 2960.00	 2985.37	-2043.62	 2220.04
     76.4070	 2961.00	 2981.97	-2039.22	 2217.79
     76.4330	 2938.00	 2978.58	-2058.83	 2215.53
     76.4590	 3036.00	 2975.22	-1957.47	 2213.27
     76.4850	 2948.00	 2971.87	-2042.12	 2211.02
     76.5110	 2944.00	 2968.54	-2042.79	 2208.76
     76.5370	 3099.00	 2965.24	-1884.49	 2206.50
     76.5630	 2998.00	 2961.95	-1982.20	 2204.24
     76.5890	 2928.00	 2958.68	-2048.93	 2201.99
     76.6150	 2933.00	 2955.42	-2040.67	 2199.73
     76.6410	 2973.00	 2952.19	-1997.44	 2197.47
     76.6670	 2976.00	 2948.95	-1991.20	 2195.19
     76.6930	 2953.00	 2945.56	-2010.81	 2192.74
     76.7190	 2907.00	 2942.19	-2053.44	 2190.29
     76.7450	 2936.00	 2938.83	-2021.08	 2187.84
     76.7710	 2929.00	 2935.49	-2024.74	 2185.40
     76.7970	 2896.00	 2932.17	-2054.42	 2182.95
     76.8230	 2903.00	 2928.87	-2044.12	 2180.50
     76.8490	 2927.00	 2925.59	-2016.84	 2178.05
     76.8750	 2919.00	 2922.32	-2021.57	 2175.60
     76.9010	 2900.00	 2919.06	-2037.31	 2173.15
     76.9270	 2902.00	 2915.82	-2032.07	 2170.70
     76.9530	 2913.00	 2912.60	-2017.85	 2168.25
     76.9790	 2870.00	 2909.40	-2057.65	 2165.80
     77.0050	 2850.00	 2906.20	-2074.45	 2163.35
     77.0310	 2860.00	 2903.03	-2061.28	 2160.90
     77.0570	 2864.00	 2899.87	-2054.12	 2158.46
     77.0830	 2919.00	 2896.72	-1995.97	 2156.01
     77.1090	 2885.00	 2893.58	-2026.83	 2153.56
     77.1350	 2850.00	 2890.46	-2058.71	 2151.11
     77.1610	 2879.00	 2887.36	-2026.61	 2148.66
     77.1870	 2881.00	 2884.26	-2021.51	 2146.21
     77.2130	 2854.00	 2881.18	-2045.43	 2143.76
     77.2390	 2852.00	 2878.11	-2044.36	 2141.31
     77.2650	 2890.00	 2875.06	-2003.31	 2138.86
     77.2910	 2851.00	 2872.01	-2039.26	 2136.41
     77.3170	 2844.00	 2868.98	-2043.23	 2133.96
     77.3430	 2799.00	 2865.96	-2085.21	 2131.52
     77.3690	 2827.00	 2862.95	-2054.20	 2129.07
     77.3950	 2861.00	 2859.95	-2017.20	 2126.62
     77.4210	 2884.00	 2856.97	-1991.22	 2124.17
     77.4470	 2839.00	 2853.99	-2033.24	 2121.72
     77.4730	 2855.00	 2851.02	-2014.27	 2119.27
     77.4990	 2851.00	 2848.07	-2015.32	 2116.82
     77.5250	 2819.00	 2845.12	-2044.37	 2114.37
     77.5510	 2815.00	 2842.18	-2045.43	 2111.92
     77.5770	 2878.00	 2839.25	-1979.50	 2109.47
     77.6030	 2864.00	 2836.33	-1990.58	 2107.02
     77.6290	 2897.00	 2833.42	-1954.67	 2104.58
     77.6550	 2920.00	 2830.52	-1928.77	 2102.13
     77.6810	 2823.00	 2827.63	-2022.88	 2099.68
     77.7070	 2856.00	 2824.75	-1987.00	 2097.23
     77.7330	 2887.00	 2821.87	-1953.12	 2094.78
     77.7590	 2825.00	 2819.00	-2012.25	 2092.33
     77.7850	 2833.00	 2816.14	-2001.39	 2089.88
     77.8110	 2877.00	 2813.29	-1954.54	 2087.43
     77.8370	 2854.00	 2810.45	-1974.70	 2084.98
     77.8630	 2847.00	 2807.61	-1978.86	 2082.53
     77.8890	 2814.00	 2804.78	-2009.03	 2080.08
     77.9150	 2790.00	 2801.95	-2030.20	 2077.64
     77.9410	 2772.00	 2799.14	-2045.39	 2075.19
     77.9670	 2853.00	 2796.33	-1961.58	 2072.74
     77.9930	 2798.00	 2793.52	-2013.77	 2070.29
     78.0190	 2794.00	 2790.72	-2014.97	 2067.84
     78.0450	 2739.00	 2787.93	-2067.18	 2065.39
     78.0710	 2818.00	 2786.75	-1987.00	 2064.54
     78.0970	 2729.00	 2786.59	-2075.84	 2064.71
     78.1230	 2778.00	 2786.43	-2026.68	 2064.88
     78.1490	 2816.00	 2786.28	-1988.53	 2065.04
     78.1750	 2720.00	 2786.13	-2084.38	 2065.21
     78.2010	 2818.00	 2785.99	-1986.24	 2065.38
     78.2270	 2756.00	 2785.86	-2048.11	 2065.55
     78.2530	 2791.00	 2785.73	-2012.98	 2065.71
     78.2790	 2803.00	 2785.60	-2000.85	 2065.88
     78.3050	 2826.00	 2785.48	-1977.73	 2066.05
     78.3310	 2808.00	 2785.37	-1995.62	 2066.22
     78.3570	 2761.00	 2785.25	-2042.50	 2066.38
     78.3830	 2801.00	 2785.15	-2002.40	 2066.55
     78.4090	 2796.00	 2785.05	-2007.30	 2066.72
     78.4350	 2804.00	 2784.95	-1999.20	 2066.89
     78.4610	 2810.00	 2784.86	-1993.11	 2067.05
     78.4870	 2799.00	 2784.77	-2004.02	 2067.22
     78.5130	 2754.00	 2784.68	-2048.93	 2067.39
     78.5390	 2762.00	 2784.60	-2040.85	 2067.56
     78.5650	 2779.00	 2784.53	-2023.78	 2067.72
     78.5910	 2886.00	 2784.46	-1916.71	 2067.89
     78.6170	 2842.00	 2784.39	-1960.64	 2068.06
     78.6430	 2932.00	 2784.32	-1870.57	 2068.23
     78.6690	 2991.00	 2784.26	-1811.51	 2068.39
     78.6950	 2912.00	 2784.20	-1890.45	 2068.56
     78.7210	 2814.00	 2784.15	-1988.40	 2068.73
     78.7470	 2872.00	 2784.10	-1930.35	 2068.90
     78.7730	 2892.00	 2784.05	-1910.30	 2069.06
     78.7990	 2806.00	 2784.00	-1996.25	 2069.23
     78.8250	 2866.00	 2783.96	-1936.21	 2069.40
     78.8510	 2904.00	 2783.93	-1898.18	 2069.57
     78.8770	 2887.00	 2783.77	-1915.02	 2069.61
     78.9030	 2866.00	 2783.57	-1935.82	 2069.61
     78.9290	 2815.00	 2783.37	-1986.62	 2069.61
     78.9550	 2867.00	 2783.18	-1934.43	 2069.61
     78.9810	 2839.00	 2782.99	-1962.24	 2069.61
     18.3125	        	        	        	        	       0	(  1  1  1)	  0  1
     18.3588	        	        	        	        	       0	(  1  1  1)	  0  2
     30.1227	        	        	        	        	       0	(  2  2  0)	  0  1
     30.2001	        	        	        	        	       0	(  2  2  0)	  0  2
     35.4809	        	        	        	        	       0	(  3  1  1)	  0  1
     35.5729	        	        	        	        	       0	(  3  1  1)	  0  2
     37.1148	        	        	        	        	       0	(  2  2  2)	  0  1
     37.2081	        	        	        	        	    -504	(  1  1  1)	  0  1
     37.2113	        	        	        	        	       0	(  2  2  2)	  0  2
     37.3050	        	        	        	        	    -504	(  1  1  1)	  0  2
     43.1216	        	        	        	        	       0	(  4  0  0)	  0  1
     43.2315	        	        	        	        	    -504	(  2  0  0)	  0  1
     43.2353	        	        	        	        	       0	(  4  0  0)	  0  2
     43.3455	        	        	        	        	    -504	(  2  0  0)	  0  2
     47.2140	        	        	        	        	       0	(  3  3  1)	  0  1
     47.3397	        	        	        	        	       0	(  3  3  1)	  0  2
     53.4976	        	        	        	        	       0	(  4  2  2)	  0  1
     53.6426	        	        	        	        	       0	(  4  2  2)	  0  2
     57.0291	        	        	        	        	       0	(  5  1  1)	  0  1
     57.0290	        	        	        	        	       0	(  3  3  3)	  0  1
     57.1853	        	        	        	        	       0	(  5  1  1)	  0  2
     57.1853	        	        	        	        	       0	(  3  3  3)	  0  2
     62.6252	        	        	        	        	       0	(  4  4  0)	  0  1
     62.7945	        	        	        	        	    -504	(  2  2  0)	  0  1
     62.8002	        	        	        	        	       0	(  4  4  0)	  0  2
     62.9701	        	        	        	        	    -504	(  2  2  0)	  0  2
     65.8475	        	        	        	        	       0	(  5  3  1)	  0  1
     66.0339	        	        	        	        	       0	(  5  3  1)	  0  2
     66.9033	        	        	        	        	       0	(  4  4  2)	  0  1
     67.0933	        	        	        	        	       0	(  4  4  2)	  0  2
     71.0489	        	        	        	        	       0	(  6  2  0)	  0  1
     71.2543	        	        	        	        	       0	(  6  2  0)	  0  2
     74.0905	        	        	        	        	       0	(  5  3  3)	  0  1
     74.3077	        	        	        	        	       0	(  5  3  3)	  0  2
     75.0938	        	        	        	        	       0	(  6  2  2)	  0  1
     75.3077	        	        	        	        	    -504	(  3  1  1)	  0  1
     75.3150	        	        	        	        	       0	(  6  2  2)	  0  2
     75.5298	        	        	        	        	    -504	(  3  1  1)	  0  2
