 AH11    CELL:    8.39425   8.39425   8.39425   90.0000   90.0000   90.0000   SPGR: F d -3 m               TEMP:      0.00
  1   2495     1.54056     1.54443     0.00000     0.00000     0.00000    0
    32     0     0
 2Theta	Yobs	Ycal	Yobs-Ycal	Backg	Posr	(hkl)	K
     15.0230	 2614.00	 2657.31	-1318.31	 2270.86
     15.0490	 2693.00	 2656.10	-1238.10	 2269.00
     15.0750	 2689.00	 2654.90	-1240.90	 2267.14
     15.1010	 2630.00	 2653.72	-1298.72	 2265.27
     15.1270	 2704.00	 2652.55	-1223.55	 2263.41
     15.1530	 2679.00	 2651.39	-1247.39	 2261.55
     15.1790	 2604.00	 2650.25	-1321.25	 2259.69
     15.2050	 2722.00	 2649.12	-1202.12	 2257.83
     15.2310	 2679.00	 2648.01	-1244.01	 2255.97
     15.2570	 2696.00	 2646.91	-1225.91	 2254.11
     15.2830	 2660.00	 2645.83	-1260.83	 2252.25
     15.3090	 2715.00	 2644.76	-1204.76	 2250.39
     15.3350	 2649.00	 2643.71	-1269.71	 2248.52
     15.3610	 2737.00	 2642.67	-1180.67	 2246.66
     15.3870	 2628.00	 2641.65	-1288.65	 2244.80
     15.4130	 2614.00	 2640.65	-1301.65	 2242.94
     15.4390	 2686.00	 2639.67	-1228.67	 2241.08
     15.4650	 2622.00	 2638.70	-1291.70	 2239.22
     15.4910	 2557.00	 2637.76	-1355.76	 2237.36
     15.5170	 2668.00	 2636.83	-1243.83	 2235.50
     15.5430	 2630.00	 2635.92	-1280.92	 2233.64
     15.5690	 2600.00	 2635.03	-1310.03	 2231.77
     15.5950	 2649.00	 2634.17	-1260.17	 2229.91
     15.6210	 2625.00	 2633.32	-1283.32	 2228.05
     15.6470	 2647.00	 2632.50	-1260.50	 2226.19
     15.6730	 2662.00	 2631.69	-1244.69	 2224.33
     15.6990	 2657.00	 2630.92	-1248.92	 2222.47
     15.7250	 2639.00	 2630.16	-1266.16	 2220.61
     15.7510	 2698.00	 2629.43	-1206.43	 2218.75
     15.7770	 2695.00	 2628.72	-1208.72	 2216.89
     15.8030	 2626.00	 2628.04	-1277.04	 2215.02
     15.8290	 2589.00	 2627.39	-1313.39	 2213.16
     15.8550	 2653.00	 2626.76	-1248.76	 2211.30
     15.8810	 2611.00	 2626.15	-1290.15	 2209.44
     15.9070	 2578.00	 2627.91	-1324.91	 2209.88
     15.9330	 2556.00	 2634.41	-1353.41	 2215.04
     15.9590	 2709.00	 2640.91	-1206.91	 2220.20
     15.9850	 2744.00	 2647.45	-1178.45	 2225.36
     16.0110	 2716.00	 2654.02	-1213.02	 2230.52
     16.0370	 2665.00	 2660.62	-1270.62	 2235.68
     16.0630	 2727.00	 2667.25	-1215.25	 2240.84
     16.0890	 2687.00	 2673.92	-1261.92	 2246.00
     16.1150	 2738.00	 2680.62	-1217.62	 2251.16
     16.1410	 2709.00	 2687.35	-1253.35	 2256.32
     16.1670	 2738.00	 2694.12	-1231.12	 2261.48
     16.1930	 2678.00	 2700.93	-1297.93	 2266.64
     16.2190	 2711.00	 2707.77	-1271.77	 2271.80
     16.2450	 2634.00	 2714.66	-1355.66	 2276.97
     16.2710	 2690.00	 2721.58	-1306.58	 2282.13
     16.2970	 2766.00	 2728.55	-1237.55	 2287.29
     16.3230	 2770.00	 2735.55	-1240.55	 2292.45
     16.3490	 2768.00	 2742.60	-1249.60	 2297.61
     16.3750	 2773.00	 2749.69	-1251.69	 2302.77
     16.4010	 2674.00	 2756.83	-1357.83	 2307.93
     16.4270	 2712.00	 2764.01	-1327.01	 2313.09
     16.4530	 2771.00	 2771.24	-1275.24	 2318.25
     16.4790	 2677.00	 2778.51	-1376.51	 2323.41
     16.5050	 2639.00	 2785.84	-1421.84	 2328.57
     16.5310	 2746.00	 2793.21	-1322.21	 2333.73
     16.5570	 2762.00	 2800.63	-1313.63	 2338.90
     16.5830	 2678.00	 2808.11	-1405.11	 2344.06
     16.6090	 2700.00	 2815.63	-1390.63	 2349.22
     16.6350	 2780.00	 2823.21	-1318.21	 2354.38
     16.6610	 2786.00	 2830.85	-1319.85	 2359.54
     16.6870	 2798.00	 2838.54	-1315.54	 2364.70
     16.7130	 2816.00	 2846.29	-1305.29	 2369.86
     16.7390	 2840.00	 2854.09	-1289.09	 2375.02
     16.7650	 2801.00	 2861.95	-1335.95	 2380.18
     16.7910	 2776.00	 2869.87	-1368.87	 2385.34
     16.8170	 2845.00	 2877.85	-1307.85	 2390.50
     16.8430	 2875.00	 2885.88	-1285.88	 2395.66
     16.8690	 2853.00	 2893.98	-1315.98	 2400.83
     16.8950	 2839.00	 2902.14	-1338.14	 2405.99
     16.9210	 2833.00	 2910.36	-1352.36	 2411.15
     16.9470	 2833.00	 2918.64	-1360.64	 2416.31
     16.9730	 2915.00	 2926.98	-1286.98	 2421.47
     16.9990	 2961.00	 2935.39	-1249.39	 2426.63
     17.0250	 2921.00	 2943.85	-1297.85	 2431.79
     17.0510	 2877.00	 2952.38	-1350.38	 2436.95
     17.0770	 2849.00	 2960.97	-1386.97	 2442.11
     17.1030	 2852.00	 2969.62	-1392.62	 2447.27
     17.1290	 2819.00	 2978.32	-1434.32	 2452.43
     17.1550	 2894.00	 2987.09	-1368.09	 2457.59
     17.1810	 2906.00	 2995.91	-1364.91	 2462.76
     17.2070	 2922.00	 3004.78	-1357.78	 2467.92
     17.2330	 2913.00	 3013.71	-1375.71	 2473.08
     17.2590	 2894.00	 3022.69	-1403.69	 2478.24
     17.2850	 2906.00	 3031.72	-1400.72	 2483.40
     17.3110	 2967.00	 3040.80	-1348.80	 2488.56
     17.3370	 2951.00	 3049.92	-1373.92	 2493.72
     17.3630	 2949.00	 3059.08	-1385.08	 2498.88
     17.3890	 3055.00	 3068.27	-1288.27	 2504.04
     17.4150	 2976.00	 3077.49	-1376.49	 2509.20
     17.4410	 3094.00	 3086.74	-1267.74	 2514.36
     17.4670	 3035.00	 3096.01	-1336.01	 2519.52
     17.4930	 3050.00	 3105.30	-1330.30	 2524.69
     17.5190	 3112.00	 3114.60	-1277.60	 2529.85
     17.5450	 3044.00	 3123.90	-1354.90	 2535.01
     17.5710	 3030.00	 3133.19	-1378.19	 2540.17
     17.5970	 3018.00	 3142.48	-1399.48	 2545.33
     17.6230	 3089.00	 3151.74	-1337.74	 2550.49
     17.6490	 3027.00	 3160.98	-1408.98	 2555.65
     17.6750	 3088.00	 3170.18	-1357.18	 2560.81
     17.7010	 3037.00	 3179.33	-1417.33	 2565.97
     17.7270	 3091.00	 3188.43	-1372.43	 2571.13
     17.7530	 3060.00	 3197.47	-1412.47	 2576.29
     17.7790	 3149.00	 3206.42	-1332.42	 2581.45
     17.8050	 3177.00	 3215.30	-1313.30	 2586.61
     17.8310	 3217.00	 3224.07	-1282.07	 2591.78
     17.8570	 3242.00	 3232.74	-1265.74	 2596.94
     17.8830	 3263.00	 3241.29	-1253.29	 2602.10
     17.9090	 3249.00	 3249.71	-1275.71	 2607.26
     17.9350	 3270.00	 3257.98	-1262.98	 2612.42
     17.9610	 3292.00	 3266.11	-1249.11	 2617.58
     17.9870	 3336.00	 3274.07	-1213.07	 2622.74
     18.0130	 3260.00	 3281.86	-1296.86	 2627.90
     18.0390	 3282.00	 3289.47	-1282.47	 2633.06
     18.0650	 3266.00	 3296.88	-1305.88	 2638.22
     18.0910	 3407.00	 3304.09	-1172.09	 2643.38
     18.1170	 3348.00	 3311.10	-1238.10	 2648.54
     18.1430	 3347.00	 3317.88	-1245.88	 2653.71
     18.1690	 3436.00	 3324.44	-1163.44	 2658.87
     18.1950	 3392.00	 3330.77	-1213.77	 2664.03
     18.2210	 3369.00	 3336.86	-1242.86	 2669.19
     18.2470	 3448.00	 3342.71	-1169.71	 2674.35
     18.2730	 3558.00	 3348.32	-1065.32	 2679.51
     18.2990	 3464.00	 3353.69	-1164.69	 2684.67
     18.3250	 3515.00	 3358.81	-1118.81	 2689.83
     18.3510	 3440.00	 3363.68	-1198.68	 2694.99
     18.3770	 3466.00	 3368.31	-1177.31	 2700.15
     18.4030	 3463.00	 3372.70	-1184.70	 2705.31
     18.4290	 3449.00	 3376.85	-1202.85	 2710.47
     18.4550	 3417.00	 3380.77	-1238.77	 2715.64
     18.4810	 3344.00	 3384.46	-1315.46	 2720.80
     18.5070	 3444.00	 3387.93	-1218.93	 2725.96
     18.5330	 3324.00	 3391.18	-1342.18	 2731.12
     18.5590	 3446.00	 3394.23	-1223.23	 2736.28
     18.5850	 3359.00	 3397.08	-1313.08	 2741.44
     18.6110	 3412.00	 3399.74	-1262.74	 2746.60
     18.6370	 3484.00	 3402.23	-1193.23	 2751.76
     18.6630	 3377.00	 3404.54	-1302.54	 2756.92
     18.6890	 3435.00	 3406.70	-1246.70	 2762.08
     18.7150	 3436.00	 3408.71	-1247.71	 2767.24
     18.7410	 3427.00	 3410.59	-1258.59	 2772.40
     18.7670	 3334.00	 3412.34	-1353.34	 2777.57
     18.7930	 3362.00	 3413.98	-1326.98	 2782.73
     18.8190	 3373.00	 3415.51	-1317.51	 2787.89
     18.8450	 3328.00	 3415.63	-1362.63	 2791.72
     18.8710	 3308.00	 3415.51	-1382.51	 2795.41
     18.8970	 3306.00	 3415.33	-1384.33	 2799.09
     18.9230	 3380.00	 3415.08	-1310.08	 2802.78
     18.9490	 3390.00	 3414.79	-1299.79	 2806.46
     18.9750	 3311.00	 3414.45	-1378.45	 2810.15
     19.0010	 3313.00	 3414.08	-1376.08	 2813.83
     19.0270	 3317.00	 3413.69	-1371.69	 2817.52
     19.0530	 3339.00	 3413.28	-1349.28	 2821.20
     19.0790	 3314.00	 3412.87	-1373.87	 2824.89
     19.1050	 3319.00	 3412.45	-1368.45	 2828.57
     19.1310	 3333.00	 3412.04	-1354.04	 2832.26
     19.1570	 3305.00	 3411.64	-1381.64	 2835.94
     19.1830	 3377.00	 3411.26	-1309.26	 2839.63
     19.2090	 3421.00	 3410.91	-1264.91	 2843.32
     19.2350	 3353.00	 3410.58	-1332.58	 2847.00
     19.2610	 3292.00	 3410.29	-1393.29	 2850.69
     19.2870	 3333.00	 3410.03	-1352.03	 2854.37
     19.3130	 3320.00	 3409.82	-1364.82	 2858.06
     19.3390	 3288.00	 3409.64	-1396.64	 2861.74
     19.3650	 3294.00	 3409.52	-1390.52	 2865.43
     19.3910	 3309.00	 3409.45	-1375.45	 2869.11
     19.4170	 3344.00	 3409.43	-1340.43	 2872.80
     19.4430	 3294.00	 3409.46	-1390.46	 2876.48
     19.4690	 3276.00	 3409.55	-1408.55	 2880.17
     19.4950	 3384.00	 3409.69	-1300.69	 2883.85
     19.5210	 3393.00	 3409.90	-1291.90	 2887.54
     19.5470	 3301.00	 3410.16	-1384.16	 2891.23
     19.5730	 3228.00	 3410.49	-1457.49	 2894.91
     19.5990	 3245.00	 3410.87	-1440.87	 2898.60
     19.6250	 3355.00	 3411.32	-1331.32	 2902.28
     19.6510	 3411.00	 3411.83	-1275.83	 2905.97
     19.6770	 3439.00	 3412.40	-1248.40	 2909.65
     19.7030	 3367.00	 3413.03	-1321.03	 2913.34
     19.7290	 3314.00	 3413.72	-1374.72	 2917.02
     19.7550	 3417.00	 3414.48	-1272.48	 2920.71
     19.7810	 3431.00	 3415.29	-1259.29	 2924.39
     19.8070	 3431.00	 3416.16	-1260.16	 2928.08
     19.8330	 3385.00	 3417.10	-1307.10	 2931.76
     19.8590	 3346.00	 3418.09	-1347.09	 2935.45
     19.8850	 3384.00	 3419.14	-1310.14	 2939.14
     19.9110	 3329.00	 3420.25	-1366.25	 2942.82
     19.9370	 3311.00	 3421.42	-1385.42	 2946.51
     19.9630	 3366.00	 3422.64	-1331.64	 2950.19
     19.9890	 3402.00	 3423.91	-1296.91	 2953.88
     20.0150	 3419.00	 3425.24	-1281.24	 2957.56
     20.0410	 3477.00	 3426.62	-1224.62	 2961.25
     20.0670	 3404.00	 3428.06	-1299.06	 2964.93
     20.0930	 3400.00	 3429.54	-1304.54	 2968.62
     20.1190	 3376.00	 3431.08	-1330.08	 2972.30
     20.1450	 3491.00	 3432.66	-1216.66	 2975.99
     20.1710	 3491.00	 3434.30	-1218.30	 2979.68
     20.1970	 3532.00	 3435.97	-1178.97	 2983.36
     20.2230	 3460.00	 3437.70	-1252.70	 2987.05
     20.2490	 3401.00	 3439.47	-1313.47	 2990.73
     20.2750	 3465.00	 3441.29	-1251.29	 2994.42
     20.3010	 3514.00	 3443.14	-1204.14	 2998.10
     20.3270	 3429.00	 3445.04	-1291.04	 3001.79
     20.3530	 3375.00	 3446.98	-1346.98	 3005.47
     20.3790	 3444.00	 3448.97	-1279.97	 3009.16
     20.4050	 3460.00	 3450.99	-1265.99	 3012.84
     20.4310	 3523.00	 3453.05	-1205.05	 3016.53
     20.4570	 3514.00	 3455.14	-1216.14	 3020.21
     20.4830	 3406.00	 3457.27	-1326.27	 3023.90
     20.5090	 3388.00	 3459.44	-1346.44	 3027.59
     20.5350	 3387.00	 3461.65	-1349.65	 3031.27
     20.5610	 3566.00	 3463.88	-1172.88	 3034.96
     20.5870	 3589.00	 3466.15	-1152.15	 3038.64
     20.6130	 3424.00	 3468.46	-1319.46	 3042.33
     20.6390	 3442.00	 3470.79	-1303.79	 3046.01
     20.6650	 3460.00	 3473.16	-1288.16	 3049.70
     20.6910	 3425.00	 3475.55	-1325.55	 3053.38
     20.7170	 3504.00	 3477.97	-1248.97	 3057.07
     20.7430	 3537.00	 3480.43	-1218.43	 3060.75
     20.7690	 3465.00	 3482.91	-1292.91	 3064.44
     20.7950	 3484.00	 3485.43	-1276.43	 3068.12
     20.8210	 3426.00	 3487.97	-1336.97	 3071.81
     20.8470	 3490.00	 3490.53	-1275.53	 3075.50
     20.8730	 3576.00	 3493.11	-1192.11	 3079.18
     20.8990	 3538.00	 3495.72	-1232.72	 3082.87
     20.9250	 3544.00	 3498.35	-1229.35	 3086.55
     20.9510	 3439.00	 3501.01	-1337.01	 3090.24
     20.9770	 3494.00	 3503.69	-1284.69	 3093.92
     21.0030	 3446.00	 3506.39	-1335.39	 3097.61
     21.0290	 3542.00	 3509.12	-1242.12	 3101.29
     21.0550	 3485.00	 3511.86	-1301.86	 3104.98
     21.0810	 3552.00	 3514.63	-1237.63	 3108.66
     21.1070	 3514.00	 3517.41	-1278.41	 3112.35
     21.1330	 3519.00	 3520.22	-1276.22	 3116.03
     21.1590	 3608.00	 3523.04	-1190.04	 3119.72
     21.1850	 3595.00	 3525.88	-1205.88	 3123.41
     21.2110	 3572.00	 3528.74	-1231.74	 3127.09
     21.2370	 3580.00	 3531.62	-1226.62	 3130.78
     21.2630	 3643.00	 3534.52	-1166.52	 3134.46
     21.2890	 3566.00	 3537.43	-1246.43	 3138.15
     21.3150	 3528.00	 3540.36	-1287.36	 3141.83
     21.3410	 3515.00	 3543.31	-1303.31	 3145.52
     21.3670	 3511.00	 3546.27	-1310.27	 3149.20
     21.3930	 3531.00	 3549.24	-1293.24	 3152.89
     21.4190	 3643.00	 3552.24	-1184.24	 3156.57
     21.4450	 3571.00	 3555.24	-1259.24	 3160.26
     21.4710	 3535.00	 3558.26	-1298.26	 3163.95
     21.4970	 3601.00	 3561.30	-1235.30	 3167.63
     21.5230	 3689.00	 3561.25	-1147.25	 3168.22
     21.5490	 3583.00	 3561.17	-1253.17	 3168.77
     21.5750	 3632.00	 3561.11	-1204.11	 3169.31
     21.6010	 3675.00	 3561.05	-1161.05	 3169.86
     21.6270	 3623.00	 3561.01	-1213.01	 3170.40
     21.6530	 3592.00	 3560.98	-1243.98	 3170.95
     21.6790	 3592.00	 3561.03	-1244.03	 3171.49
     21.7050	 3675.00	 3561.06	-1161.06	 3172.04
     21.7310	 3590.00	 3561.06	-1246.06	 3172.58
     21.7570	 3535.00	 3561.08	-1301.08	 3173.13
     21.7830	 3580.00	 3561.11	-1256.11	 3173.67
     21.8090	 3616.00	 3561.15	-1220.15	 3174.22
     21.8350	 3641.00	 3561.19	-1195.19	 3174.76
     21.8610	 3645.00	 3561.25	-1191.25	 3175.31
     21.8870	 3595.00	 3561.32	-1241.32	 3175.85
     21.9130	 3536.00	 3561.40	-1300.40	 3176.40
     21.9390	 3532.00	 3561.49	-1304.49	 3176.94
     21.9650	 3585.00	 3561.58	-1251.58	 3177.49
     21.9910	 3622.00	 3561.69	-1214.69	 3178.03
     22.0170	 3655.00	 3561.80	-1181.80	 3178.58
     22.0430	 3635.00	 3561.93	-1201.93	 3179.12
     22.0690	 3632.00	 3562.06	-1205.06	 3179.67
     22.0950	 3676.00	 3562.20	-1161.20	 3180.21
     22.1210	 3608.00	 3562.35	-1229.35	 3180.76
     22.1470	 3547.00	 3562.51	-1290.51	 3181.30
     22.1730	 3608.00	 3562.67	-1229.67	 3181.85
     22.1990	 3592.00	 3562.84	-1245.84	 3182.39
     22.2250	 3527.00	 3563.02	-1311.02	 3182.94
     22.2510	 3602.00	 3563.21	-1236.21	 3183.48
     22.2770	 3627.00	 3563.40	-1211.40	 3184.03
     22.3030	 3617.00	 3563.60	-1221.60	 3184.57
     22.3290	 3635.00	 3563.81	-1203.81	 3185.12
     22.3550	 3655.00	 3564.03	-1184.03	 3185.66
     22.3810	 3687.00	 3564.25	-1152.25	 3186.21
     22.4070	 3689.00	 3564.47	-1150.47	 3186.75
     22.4330	 3635.00	 3564.71	-1204.71	 3187.30
     22.4590	 3618.00	 3564.95	-1221.95	 3187.84
     22.4850	 3662.00	 3565.20	-1178.20	 3188.39
     22.5110	 3695.00	 3565.45	-1145.45	 3188.93
     22.5370	 3631.00	 3565.71	-1209.71	 3189.48
     22.5630	 3544.00	 3565.97	-1296.97	 3190.02
     22.5890	 3619.00	 3566.24	-1222.24	 3190.57
     22.6150	 3684.00	 3566.52	-1157.52	 3191.11
     22.6410	 3621.00	 3566.80	-1220.80	 3191.66
     22.6670	 3661.00	 3567.09	-1181.09	 3192.20
     22.6930	 3675.00	 3567.38	-1167.38	 3192.75
     22.7190	 3723.00	 3567.68	-1119.68	 3193.29
     22.7450	 3659.00	 3567.98	-1183.98	 3193.84
     22.7710	 3580.00	 3568.29	-1263.29	 3194.38
     22.7970	 3573.00	 3568.60	-1270.60	 3194.93
     22.8230	 3615.00	 3568.92	-1228.92	 3195.47
     22.8490	 3544.00	 3569.24	-1300.24	 3196.01
     22.8750	 3647.00	 3569.57	-1197.57	 3196.56
     22.9010	 3694.00	 3569.90	-1150.90	 3197.10
     22.9270	 3723.00	 3570.23	-1122.23	 3197.65
     22.9530	 3689.00	 3570.58	-1156.58	 3198.19
     22.9790	 3687.00	 3570.92	-1158.92	 3198.74
     23.0050	 3619.00	 3571.27	-1227.27	 3199.28
     23.0310	 3623.00	 3571.62	-1223.62	 3199.83
     23.0570	 3701.00	 3571.98	-1145.98	 3200.37
     23.0830	 3565.00	 3572.34	-1282.34	 3200.92
     23.1090	 3568.00	 3572.71	-1279.71	 3201.46
     23.1350	 3616.00	 3573.08	-1232.08	 3202.01
     23.1610	 3609.00	 3573.45	-1239.45	 3202.55
     23.1870	 3637.00	 3573.83	-1211.83	 3203.10
     23.2130	 3620.00	 3574.21	-1229.21	 3203.64
     23.2390	 3620.00	 3574.60	-1229.60	 3204.19
     23.2650	 3707.00	 3574.99	-1142.99	 3204.73
     23.2910	 3739.00	 3575.38	-1111.38	 3205.28
     23.3170	 3734.00	 3575.78	-1116.78	 3205.82
     23.3430	 3594.00	 3576.18	-1257.18	 3206.37
     23.3690	 3543.00	 3576.58	-1308.58	 3206.91
     23.3950	 3602.00	 3576.99	-1249.99	 3207.46
     23.4210	 3498.00	 3577.40	-1354.40	 3208.00
     23.4470	 3652.00	 3577.82	-1200.82	 3208.55
     23.4730	 3587.00	 3578.24	-1266.24	 3209.09
     23.4990	 3758.00	 3578.66	-1095.66	 3209.64
     23.5250	 3660.00	 3579.08	-1194.08	 3210.18
     23.5510	 3701.00	 3579.51	-1153.51	 3210.73
     23.5770	 3714.00	 3579.94	-1140.94	 3211.27
     23.6030	 3682.00	 3580.37	-1173.37	 3211.82
     23.6290	 3586.00	 3580.81	-1269.81	 3212.36
     23.6550	 3575.00	 3581.25	-1281.25	 3212.91
     23.6810	 3742.00	 3581.70	-1114.70	 3213.45
     23.7070	 3586.00	 3582.14	-1271.14	 3214.00
     23.7330	 3552.00	 3582.59	-1305.59	 3214.54
     23.7590	 3589.00	 3583.05	-1269.05	 3215.09
     23.7850	 3639.00	 3583.50	-1219.50	 3215.63
     23.8110	 3650.00	 3583.96	-1208.96	 3216.18
     23.8370	 3609.00	 3584.42	-1250.42	 3216.72
     23.8630	 3623.00	 3584.89	-1236.89	 3217.27
     23.8890	 3699.00	 3585.35	-1161.35	 3217.81
     23.9150	 3657.00	 3585.82	-1203.82	 3218.36
     23.9410	 3528.00	 3586.30	-1333.30	 3218.90
     23.9670	 3635.00	 3586.77	-1226.77	 3219.45
     23.9930	 3606.00	 3587.25	-1256.25	 3219.99
     24.0190	 3560.00	 3587.73	-1302.73	 3220.54
     24.0450	 3611.00	 3588.22	-1252.22	 3221.08
     24.0710	 3570.00	 3588.70	-1293.70	 3221.63
     24.0970	 3639.00	 3589.19	-1225.19	 3222.17
     24.1230	 3559.00	 3589.69	-1305.69	 3222.72
     24.1490	 3595.00	 3590.18	-1270.18	 3223.26
     24.1750	 3605.00	 3590.68	-1260.68	 3223.81
     24.2010	 3592.00	 3591.18	-1274.18	 3224.35
     24.2270	 3592.00	 3591.68	-1274.68	 3224.90
     24.2530	 3599.00	 3592.19	-1268.19	 3225.44
     24.2790	 3597.00	 3592.70	-1270.70	 3225.99
     24.3050	 3597.00	 3593.21	-1271.21	 3226.53
     24.3310	 3627.00	 3593.72	-1241.72	 3227.08
     24.3570	 3643.00	 3594.24	-1226.24	 3227.62
     24.3830	 3626.00	 3594.76	-1243.76	 3228.17
     24.4090	 3668.00	 3595.28	-1202.28	 3228.71
     24.4350	 3631.00	 3595.80	-1239.80	 3229.25
     24.4610	 3638.00	 3596.33	-1233.33	 3229.80
     24.4870	 3655.00	 3596.86	-1216.86	 3230.34
     24.5130	 3655.00	 3597.39	-1217.39	 3230.89
     24.5390	 3632.00	 3597.92	-1240.92	 3231.43
     24.5650	 3582.00	 3598.46	-1291.46	 3231.98
     24.5910	 3621.00	 3599.00	-1253.00	 3232.52
     24.6170	 3609.00	 3599.54	-1265.54	 3233.07
     24.6430	 3543.00	 3600.08	-1332.08	 3233.61
     24.6690	 3579.00	 3600.63	-1296.63	 3234.16
     24.6950	 3670.00	 3601.18	-1206.18	 3234.70
     24.7210	 3694.00	 3601.73	-1182.73	 3235.25
     24.7470	 3692.00	 3602.29	-1185.29	 3235.79
     24.7730	 3743.00	 3602.85	-1134.85	 3236.34
     24.7990	 3702.00	 3603.41	-1176.41	 3236.88
     24.8250	 3660.00	 3603.97	-1218.97	 3237.43
     24.8510	 3645.00	 3604.53	-1234.53	 3237.97
     24.8770	 3535.00	 3605.10	-1345.10	 3238.52
     24.9030	 3563.00	 3605.67	-1317.67	 3239.06
     24.9290	 3646.00	 3606.24	-1235.24	 3239.61
     24.9550	 3665.00	 3606.82	-1216.82	 3240.15
     24.9810	 3658.00	 3607.40	-1224.40	 3240.70
     25.0070	 3663.00	 3607.98	-1219.98	 3241.24
     25.0330	 3713.00	 3608.56	-1170.56	 3241.79
     25.0590	 3701.00	 3609.15	-1183.15	 3242.33
     25.0850	 3669.00	 3609.74	-1215.74	 3242.88
     25.1110	 3621.00	 3610.33	-1264.33	 3243.42
     25.1370	 3536.00	 3610.92	-1349.92	 3243.97
     25.1630	 3567.00	 3611.52	-1319.52	 3244.51
     25.1890	 3672.00	 3612.50	-1215.50	 3245.06
     25.2150	 3655.00	 3613.10	-1233.10	 3245.60
     25.2410	 3535.00	 3613.90	-1353.90	 3246.15
     25.2670	 3554.00	 3614.51	-1335.51	 3246.69
     25.2930	 3660.00	 3615.12	-1230.12	 3247.24
     25.3190	 3620.00	 3615.74	-1270.74	 3247.78
     25.3450	 3581.00	 3616.36	-1310.36	 3248.33
     25.3710	 3544.00	 3616.98	-1347.98	 3248.87
     25.3970	 3607.00	 3617.60	-1285.60	 3249.42
     25.4230	 3634.00	 3618.23	-1259.23	 3249.96
     25.4490	 3536.00	 3618.86	-1357.86	 3250.51
     25.4750	 3586.00	 3619.50	-1308.50	 3251.05
     25.5010	 3639.00	 3620.13	-1256.13	 3251.60
     25.5270	 3607.00	 3620.77	-1288.77	 3252.14
     25.5530	 3641.00	 3621.42	-1255.42	 3252.69
     25.5790	 3655.00	 3622.06	-1242.06	 3253.23
     25.6050	 3589.00	 3622.71	-1308.71	 3253.78
     25.6310	 3620.00	 3623.37	-1278.37	 3254.32
     25.6570	 3566.00	 3624.02	-1333.02	 3254.87
     25.6830	 3613.00	 3624.68	-1286.68	 3255.41
     25.7090	 3664.00	 3625.35	-1236.35	 3255.96
     25.7350	 3589.00	 3626.01	-1312.01	 3256.50
     25.7610	 3721.00	 3626.68	-1180.68	 3257.05
     25.7870	 3535.00	 3627.36	-1367.36	 3257.59
     25.8130	 3613.00	 3628.03	-1290.03	 3258.14
     25.8390	 3672.00	 3628.72	-1231.72	 3258.68
     25.8650	 3674.00	 3629.40	-1230.40	 3259.23
     25.8910	 3591.00	 3630.09	-1314.09	 3259.77
     25.9170	 3624.00	 3630.78	-1281.78	 3260.32
     25.9430	 3522.00	 3631.48	-1384.48	 3260.86
     25.9690	 3620.00	 3632.18	-1287.18	 3261.41
     25.9950	 3638.00	 3632.89	-1269.89	 3261.95
     26.0210	 3590.00	 3633.59	-1318.59	 3262.49
     26.0470	 3551.00	 3634.31	-1358.31	 3263.04
     26.0730	 3635.00	 3635.03	-1275.03	 3263.58
     26.0990	 3599.00	 3635.75	-1311.75	 3264.13
     26.1250	 3586.00	 3636.47	-1325.47	 3264.67
     26.1510	 3599.00	 3636.19	-1312.19	 3264.20
     26.1770	 3514.00	 3634.41	-1395.41	 3262.23
     26.2030	 3584.00	 3632.64	-1323.64	 3260.27
     26.2290	 3678.00	 3630.87	-1227.87	 3258.30
     26.2550	 3744.00	 3629.10	-1160.10	 3256.33
     26.2810	 3678.00	 3627.35	-1224.35	 3254.36
     26.3070	 3626.00	 3625.59	-1274.59	 3252.39
     26.3330	 3551.00	 3623.84	-1347.84	 3250.42
     26.3590	 3654.00	 3622.10	-1243.10	 3248.45
     26.3850	 3553.00	 3620.36	-1342.36	 3246.48
     26.4110	 3547.00	 3618.63	-1346.63	 3244.51
     26.4370	 3634.00	 3616.90	-1257.90	 3242.54
     26.4630	 3538.00	 3615.18	-1352.18	 3240.57
     26.4890	 3535.00	 3613.47	-1353.47	 3238.60
     26.5150	 3624.00	 3611.76	-1262.76	 3236.63
     26.5410	 3536.00	 3610.06	-1349.06	 3234.66
     26.5670	 3585.00	 3608.36	-1298.36	 3232.69
     26.5930	 3569.00	 3606.67	-1312.67	 3230.73
     26.6190	 3584.00	 3604.99	-1295.99	 3228.76
     26.6450	 3583.00	 3603.32	-1295.32	 3226.79
     26.6710	 3612.00	 3601.65	-1264.65	 3224.82
     26.6970	 3499.00	 3599.99	-1375.99	 3222.85
     26.7230	 3591.00	 3598.33	-1282.33	 3220.88
     26.7490	 3548.00	 3596.69	-1323.69	 3218.91
     26.7750	 3598.00	 3595.05	-1272.05	 3216.94
     26.8010	 3580.00	 3593.42	-1288.42	 3214.97
     26.8270	 3578.00	 3591.80	-1288.80	 3213.00
     26.8530	 3592.00	 3590.18	-1273.18	 3211.03
     26.8790	 3687.00	 3588.58	-1176.58	 3209.06
     26.9050	 3621.00	 3586.98	-1240.98	 3207.09
     26.9310	 3642.00	 3585.40	-1218.40	 3205.12
     26.9570	 3625.00	 3583.82	-1233.82	 3203.15
     26.9830	 3539.00	 3582.25	-1318.25	 3201.19
     27.0090	 3521.00	 3580.70	-1334.70	 3199.22
     27.0350	 3523.00	 3579.15	-1331.15	 3197.25
     27.0610	 3596.00	 3577.61	-1256.61	 3195.28
     27.0870	 3649.00	 3576.09	-1202.09	 3193.31
     27.1130	 3589.00	 3574.58	-1260.58	 3191.34
     27.1390	 3543.00	 3573.07	-1305.07	 3189.37
     27.1650	 3573.00	 3571.58	-1273.58	 3187.40
     27.1910	 3637.00	 3570.11	-1208.11	 3185.43
     27.2170	 3648.00	 3568.64	-1195.64	 3183.46
     27.2430	 3632.00	 3567.19	-1210.19	 3181.49
     27.2690	 3632.00	 3565.75	-1208.75	 3179.52
     27.2950	 3634.00	 3564.33	-1205.33	 3177.55
     27.3210	 3569.00	 3562.92	-1268.92	 3175.58
     27.3470	 3553.00	 3561.53	-1283.53	 3173.61
     27.3730	 3595.00	 3560.15	-1240.15	 3171.64
     27.3990	 3524.00	 3558.79	-1309.79	 3169.68
     27.4250	 3485.00	 3557.44	-1347.44	 3167.71
     27.4510	 3527.00	 3556.11	-1304.11	 3165.74
     27.4770	 3545.00	 3554.80	-1284.80	 3163.77
     27.5030	 3526.00	 3553.51	-1302.51	 3161.80
     27.5290	 3567.00	 3552.24	-1260.24	 3159.83
     27.5550	 3622.00	 3550.98	-1203.98	 3157.86
     27.5810	 3609.00	 3549.75	-1215.75	 3155.89
     27.6070	 3567.00	 3548.54	-1256.54	 3153.92
     27.6330	 3520.00	 3547.35	-1302.35	 3151.95
     27.6590	 3535.00	 3546.19	-1286.19	 3149.98
     27.6850	 3575.00	 3545.05	-1245.05	 3148.01
     27.7110	 3569.00	 3543.93	-1249.93	 3146.04
     27.7370	 3550.00	 3542.84	-1267.84	 3144.07
     27.7630	 3615.00	 3541.78	-1201.78	 3142.10
     27.7890	 3662.00	 3540.74	-1153.74	 3140.14
     27.8150	 3614.00	 3539.74	-1200.74	 3138.17
     27.8410	 3521.00	 3538.76	-1292.76	 3136.20
     27.8670	 3575.00	 3537.82	-1237.82	 3134.23
     27.8930	 3544.00	 3536.91	-1267.91	 3132.26
     27.9190	 3497.00	 3536.03	-1314.03	 3130.29
     27.9450	 3638.00	 3535.19	-1172.19	 3128.32
     27.9710	 3586.00	 3534.39	-1223.39	 3126.35
     27.9970	 3542.00	 3533.62	-1266.62	 3124.38
     28.0230	 3436.00	 3532.90	-1371.90	 3122.41
     28.0490	 3437.00	 3532.22	-1370.22	 3120.44
     28.0750	 3477.00	 3531.59	-1329.59	 3118.47
     28.1010	 3441.00	 3531.00	-1365.00	 3116.50
     28.1270	 3614.00	 3530.46	-1191.46	 3114.53
     28.1530	 3545.00	 3529.97	-1259.97	 3112.56
     28.1790	 3400.00	 3529.54	-1404.54	 3110.60
     28.2050	 3553.00	 3529.16	-1251.16	 3108.63
     28.2310	 3522.00	 3528.85	-1281.85	 3106.66
     28.2570	 3490.00	 3528.59	-1313.59	 3104.69
     28.2830	 3542.00	 3528.41	-1261.41	 3102.72
     28.3090	 3657.00	 3528.29	-1146.29	 3100.75
     28.3350	 3636.00	 3528.24	-1167.24	 3098.78
     28.3610	 3489.00	 3528.27	-1314.27	 3096.81
     28.3870	 3557.00	 3528.38	-1246.38	 3094.84
     28.4130	 3483.00	 3528.58	-1320.58	 3092.87
     28.4390	 3463.00	 3528.86	-1340.86	 3090.90
     28.4650	 3507.00	 3529.25	-1297.25	 3088.93
     28.4910	 3557.00	 3529.73	-1247.73	 3086.96
     28.5170	 3492.00	 3530.31	-1313.31	 3084.99
     28.5430	 3497.00	 3531.01	-1309.01	 3083.02
     28.5690	 3516.00	 3531.83	-1290.83	 3081.06
     28.5950	 3535.00	 3532.77	-1272.77	 3079.09
     28.6210	 3615.00	 3533.85	-1193.85	 3077.12
     28.6470	 3609.00	 3535.06	-1201.06	 3075.15
     28.6730	 3538.00	 3536.43	-1273.43	 3073.18
     28.6990	 3632.00	 3537.96	-1180.96	 3071.21
     28.7250	 3540.00	 3539.65	-1274.65	 3069.24
     28.7510	 3464.00	 3541.53	-1352.53	 3067.27
     28.7770	 3566.00	 3543.60	-1252.60	 3065.30
     28.8030	 3545.00	 3545.88	-1275.88	 3063.33
     28.8290	 3587.00	 3548.37	-1236.37	 3061.36
     28.8550	 3535.00	 3551.10	-1291.10	 3059.39
     28.8810	 3531.00	 3554.08	-1298.08	 3057.42
     28.9070	 3548.00	 3557.24	-1284.24	 3055.37
     28.9330	 3534.00	 3559.75	-1300.75	 3052.37
     28.9590	 3633.00	 3562.56	-1204.56	 3049.37
     28.9850	 3614.00	 3565.70	-1226.70	 3046.37
     29.0110	 3620.00	 3569.20	-1224.20	 3043.37
     29.0370	 3573.00	 3573.08	-1275.08	 3040.37
     29.0630	 3619.00	 3577.37	-1233.37	 3037.37
     29.0890	 3632.00	 3582.10	-1225.10	 3034.37
     29.1150	 3570.00	 3587.31	-1292.31	 3031.37
     29.1410	 3499.00	 3593.03	-1369.03	 3028.37
     29.1670	 3536.00	 3599.30	-1338.30	 3025.37
     29.1930	 3552.00	 3606.16	-1329.16	 3022.37
     29.2190	 3581.00	 3613.67	-1307.67	 3019.38
     29.2450	 3655.00	 3621.87	-1241.87	 3016.38
     29.2710	 3615.00	 3630.81	-1290.81	 3013.38
     29.2970	 3625.00	 3640.56	-1290.56	 3010.38
     29.3230	 3665.00	 3651.18	-1261.18	 3007.38
     29.3490	 3682.00	 3662.74	-1255.74	 3004.38
     29.3750	 3668.00	 3675.30	-1282.30	 3001.38
     29.4010	 3707.00	 3688.95	-1256.95	 2998.38
     29.4270	 3713.00	 3703.76	-1265.76	 2995.38
     29.4530	 3757.00	 3719.83	-1237.83	 2992.38
     29.4790	 3764.00	 3737.23	-1248.23	 2989.38
     29.5050	 3818.00	 3756.06	-1213.06	 2986.38
     29.5310	 3780.00	 3776.41	-1271.41	 2983.38
     29.5570	 3754.00	 3798.36	-1319.36	 2980.38
     29.5830	 3747.00	 3821.99	-1349.99	 2977.38
     29.6090	 3888.00	 3847.39	-1234.39	 2974.38
     29.6350	 3872.00	 3874.60	-1277.60	 2971.39
     29.6610	 3863.00	 3903.67	-1315.67	 2968.39
     29.6870	 3877.00	 3934.59	-1332.59	 2965.39
     29.7130	 3908.00	 3967.35	-1334.35	 2962.39
     29.7390	 4036.00	 4001.85	-1240.85	 2959.39
     29.7650	 4023.00	 4037.95	-1289.95	 2956.39
     29.7910	 4021.00	 4075.42	-1329.42	 2953.39
     29.8170	 4088.00	 4113.94	-1300.94	 2950.39
     29.8430	 4075.00	 4153.09	-1353.09	 2947.39
     29.8690	 4021.00	 4192.32	-1446.32	 2944.39
     29.8950	 4023.00	 4230.97	-1482.97	 2941.39
     29.9210	 4074.00	 4268.28	-1469.28	 2938.39
     29.9470	 4123.00	 4303.36	-1455.36	 2935.39
     29.9730	 4176.00	 4335.28	-1434.28	 2932.39
     29.9990	 4210.00	 4363.07	-1428.07	 2929.39
     30.0250	 4204.00	 4385.81	-1456.81	 2926.40
     30.0510	 4190.00	 4402.66	-1487.66	 2923.40
     30.0770	 4204.00	 4412.94	-1483.94	 2920.40
     30.1030	 4188.00	 4416.17	-1503.17	 2917.40
     30.1290	 4191.00	 4412.14	-1496.14	 2914.40
     30.1550	 4243.00	 4400.92	-1432.92	 2911.40
     30.1810	 4224.00	 4382.82	-1433.82	 2908.40
     30.2070	 4208.00	 4358.40	-1425.40	 2905.40
     30.2330	 4190.00	 4328.40	-1413.40	 2902.40
     30.2590	 4083.00	 4293.70	-1485.70	 2899.40
     30.2850	 4073.00	 4255.25	-1457.25	 2896.40
     30.3110	 4164.00	 4214.00	-1325.00	 2893.40
     30.3370	 4156.00	 4170.84	-1289.84	 2890.40
     30.3630	 4150.00	 4126.62	-1251.62	 2887.40
     30.3890	 4157.00	 4082.07	-1200.07	 2884.41
     30.4150	 4008.00	 4037.79	-1304.79	 2881.41
     30.4410	 3970.00	 3994.28	-1299.28	 2878.41
     30.4670	 3865.00	 3951.93	-1361.93	 2875.41
     30.4930	 3971.00	 3911.03	-1215.03	 2872.41
     30.5190	 3971.00	 3871.78	-1175.78	 2869.41
     30.5450	 3907.00	 3834.29	-1202.29	 2866.41
     30.5710	 3834.00	 3798.65	-1239.65	 2863.41
     30.5970	 3878.00	 3764.86	-1161.86	 2860.41
     30.6230	 3830.00	 3732.91	-1177.91	 2857.41
     30.6490	 3727.00	 3702.76	-1250.76	 2854.41
     30.6750	 3700.00	 3674.34	-1249.34	 2851.41
     30.7010	 3720.00	 3647.58	-1202.58	 2848.41
     30.7270	 3709.00	 3622.40	-1188.40	 2845.41
     30.7530	 3663.00	 3598.70	-1210.70	 2842.41
     30.7790	 3663.00	 3576.41	-1188.41	 2839.41
     30.8050	 3670.00	 3555.43	-1160.43	 2836.42
     30.8310	 3726.00	 3535.67	-1084.67	 2833.42
     30.8570	 3567.00	 3517.06	-1225.06	 2830.42
     30.8830	 3533.00	 3499.51	-1241.51	 2827.42
     30.9090	 3536.00	 3482.95	-1221.95	 2824.42
     30.9350	 3509.00	 3467.31	-1233.31	 2821.42
     30.9610	 3449.00	 3452.52	-1278.52	 2818.42
     30.9870	 3475.00	 3438.52	-1238.52	 2815.42
     31.0130	 3481.00	 3425.26	-1219.26	 2812.42
     31.0390	 3426.00	 3412.68	-1261.68	 2809.42
     31.0650	 3525.00	 3400.73	-1150.73	 2806.42
     31.0910	 3443.00	 3389.37	-1221.37	 2803.42
     31.1170	 3368.00	 3378.55	-1285.55	 2800.42
     31.1430	 3405.00	 3368.25	-1238.25	 2797.42
     31.1690	 3445.00	 3358.41	-1188.41	 2794.43
     31.1950	 3339.00	 3349.01	-1285.01	 2791.43
     31.2210	 3430.00	 3340.02	-1185.02	 2788.43
     31.2470	 3389.00	 3331.42	-1217.42	 2785.43
     31.2730	 3336.00	 3323.16	-1262.16	 2782.43
     31.2990	 3365.00	 3315.25	-1225.25	 2779.43
     31.3250	 3241.00	 3307.64	-1341.64	 2776.43
     31.3510	 3379.00	 3300.32	-1196.32	 2773.43
     31.3770	 3306.00	 3293.27	-1262.27	 2770.43
     31.4030	 3264.00	 3286.48	-1297.48	 2767.43
     31.4290	 3320.00	 3279.93	-1234.93	 2764.43
     31.4550	 3294.00	 3273.61	-1254.61	 2761.43
     31.4810	 3312.00	 3267.50	-1230.50	 2758.43
     31.5070	 3245.00	 3261.59	-1291.59	 2755.43
     31.5330	 3287.00	 3255.87	-1243.87	 2752.43
     31.5590	 3255.00	 3250.33	-1270.33	 2749.44
     31.5850	 3212.00	 3244.95	-1307.95	 2746.44
     31.6110	 3225.00	 3239.74	-1289.74	 2743.44
     31.6370	 3282.00	 3234.68	-1227.68	 2740.44
     31.6630	 3248.00	 3229.77	-1256.77	 2737.44
     31.6890	 3283.00	 3224.99	-1216.99	 2734.44
     31.7150	 3334.00	 3220.35	-1161.35	 2731.44
     31.7410	 3291.00	 3215.83	-1199.83	 2728.44
     31.7670	 3216.00	 3211.43	-1270.43	 2725.44
     31.7930	 3196.00	 3207.15	-1286.15	 2722.44
     31.8190	 3214.00	 3202.98	-1263.98	 2719.44
     31.8450	 3221.00	 3198.91	-1252.91	 2716.44
     31.8710	 3210.00	 3194.95	-1259.95	 2713.44
     31.8970	 3344.00	 3191.08	-1122.08	 2710.44
     31.9230	 3197.00	 3187.31	-1265.31	 2707.44
     31.9490	 3173.00	 3183.63	-1285.63	 2704.45
     31.9750	 3237.00	 3180.04	-1218.04	 2701.45
     32.0010	 3213.00	 3176.53	-1238.53	 2698.45
     32.0270	 3280.00	 3173.11	-1168.11	 2695.45
     32.0530	 3221.00	 3169.77	-1223.77	 2692.45
     32.0790	 3127.00	 3166.51	-1314.51	 2689.45
     32.1050	 3231.00	 3163.32	-1207.32	 2686.45
     32.1310	 3262.00	 3160.21	-1173.21	 2683.45
     32.1570	 3258.00	 3157.18	-1174.18	 2680.45
     32.1830	 3201.00	 3154.22	-1228.22	 2677.45
     32.2090	 3183.00	 3151.33	-1243.33	 2674.45
     32.2350	 3254.00	 3148.51	-1169.51	 2671.45
     32.2610	 3302.00	 3145.77	-1118.77	 2668.45
     32.2870	 3262.00	 3143.09	-1156.09	 2665.45
     32.3130	 3217.00	 3140.47	-1198.47	 2662.45
     32.3390	 3190.00	 3137.93	-1222.93	 2659.46
     32.3650	 3225.00	 3135.46	-1185.46	 2656.46
     32.3910	 3232.00	 3133.05	-1176.05	 2653.46
     32.4170	 3182.00	 3130.70	-1223.70	 2650.46
     32.4430	 3177.00	 3128.43	-1226.43	 2647.46
     32.4690	 3195.00	 3126.22	-1206.22	 2644.46
     32.4950	 3213.00	 3124.08	-1186.08	 2641.46
     32.5210	 3161.00	 3122.01	-1236.01	 2638.46
     32.5470	 3094.00	 3120.00	-1301.00	 2635.46
     32.5730	 3138.00	 3118.06	-1255.06	 2632.46
     32.5990	 3215.00	 3116.19	-1176.19	 2629.46
     32.6250	 3221.00	 3114.39	-1168.39	 2626.46
     32.6510	 3191.00	 3112.66	-1196.66	 2623.46
     32.6770	 3154.00	 3111.00	-1232.00	 2620.46
     32.7030	 3127.00	 3109.42	-1257.42	 2617.46
     32.7290	 3151.00	 3107.90	-1231.90	 2614.47
     32.7550	 3147.00	 3106.46	-1234.46	 2611.47
     32.7810	 3151.00	 3105.10	-1229.10	 2608.47
     32.8070	 3167.00	 3103.82	-1211.82	 2605.47
     32.8330	 3162.00	 3102.61	-1215.61	 2602.47
     32.8590	 3103.00	 3101.48	-1273.48	 2599.47
     32.8850	 3077.00	 3100.44	-1298.44	 2596.47
     32.9110	 3132.00	 3099.48	-1242.48	 2593.47
     32.9370	 3142.00	 3098.61	-1231.61	 2590.47
     32.9630	 3135.00	 3097.82	-1237.82	 2587.47
     32.9890	 3202.00	 3097.13	-1170.13	 2584.47
     33.0150	 3208.00	 3096.53	-1163.53	 2581.47
     33.0410	 3056.00	 3096.03	-1315.03	 2578.47
     33.0670	 3004.00	 3095.63	-1366.63	 2575.47
     33.0930	 3073.00	 3095.33	-1297.33	 2572.47
     33.1190	 3125.00	 3095.14	-1245.14	 2569.48
     33.1450	 3083.00	 3095.05	-1287.05	 2566.48
     33.1710	 3108.00	 3094.96	-1261.96	 2563.36
     33.1970	 3125.00	 3094.60	-1244.60	 2559.85
     33.2230	 3218.00	 3094.36	-1151.36	 2556.35
     33.2490	 3155.00	 3094.25	-1214.25	 2552.84
     33.2750	 3126.00	 3094.27	-1243.27	 2549.34
     33.3010	 3061.00	 3094.42	-1308.42	 2545.84
     33.3270	 3031.00	 3094.71	-1338.71	 2542.33
     33.3530	 3030.00	 3095.14	-1340.14	 2538.83
     33.3790	 3081.00	 3095.73	-1289.73	 2535.32
     33.4050	 3144.00	 3096.47	-1227.47	 2531.82
     33.4310	 3146.00	 3097.38	-1226.38	 2528.32
     33.4570	 3083.00	 3098.45	-1290.45	 2524.81
     33.4830	 3193.00	 3099.71	-1181.71	 2521.31
     33.5090	 3087.00	 3101.14	-1289.14	 2517.80
     33.5350	 3111.00	 3102.77	-1266.77	 2514.30
     33.5610	 3107.00	 3104.60	-1272.60	 2510.80
     33.5870	 3133.00	 3106.64	-1248.64	 2507.29
     33.6130	 3151.00	 3108.90	-1232.90	 2503.79
     33.6390	 3092.00	 3111.39	-1294.39	 2500.28
     33.6650	 3158.00	 3114.12	-1231.12	 2496.78
     33.6910	 3104.00	 3117.10	-1288.10	 2493.28
     33.7170	 3107.00	 3120.34	-1288.34	 2489.77
     33.7430	 3132.00	 3123.86	-1266.86	 2486.27
     33.7690	 3097.00	 3127.67	-1305.67	 2482.76
     33.7950	 3185.00	 3131.78	-1221.78	 2479.26
     33.8210	 3226.00	 3136.21	-1185.21	 2475.76
     33.8470	 3160.00	 3140.97	-1255.97	 2472.25
     33.8730	 3068.00	 3146.08	-1353.08	 2468.75
     33.8990	 3037.00	 3151.57	-1389.57	 2465.24
     33.9250	 3150.00	 3157.44	-1282.44	 2461.74
     33.9510	 3132.00	 3163.72	-1306.72	 2458.24
     33.9770	 3188.00	 3170.43	-1257.43	 2454.73
     34.0030	 3143.00	 3177.59	-1309.59	 2451.23
     34.0290	 3116.00	 3185.22	-1344.22	 2447.72
     34.0550	 3227.00	 3193.37	-1241.37	 2444.22
     34.0810	 3077.00	 3202.04	-1400.04	 2440.71
     34.1070	 3242.00	 3211.27	-1244.27	 2437.21
     34.1330	 3226.00	 3221.08	-1270.08	 2433.71
     34.1590	 3226.00	 3231.53	-1280.53	 2430.20
     34.1850	 3204.00	 3242.62	-1313.62	 2426.70
     34.2110	 3161.00	 3254.42	-1368.42	 2423.19
     34.2370	 3323.00	 3266.94	-1218.94	 2419.69
     34.2630	 3275.00	 3280.24	-1280.24	 2416.19
     34.2890	 3328.00	 3294.36	-1241.36	 2412.68
     34.3150	 3256.00	 3309.33	-1328.33	 2409.18
     34.3410	 3273.00	 3325.22	-1327.22	 2405.67
     34.3670	 3329.00	 3342.08	-1288.08	 2402.17
     34.3930	 3229.00	 3359.95	-1405.95	 2398.67
     34.4190	 3276.00	 3378.90	-1377.90	 2395.16
     34.4450	 3321.00	 3398.98	-1352.98	 2391.66
     34.4710	 3426.00	 3420.25	-1269.25	 2388.15
     34.4970	 3377.00	 3442.79	-1340.79	 2384.65
     34.5230	 3377.00	 3466.65	-1364.65	 2381.15
     34.5490	 3399.00	 3491.92	-1367.92	 2377.64
     34.5750	 3407.00	 3518.65	-1386.65	 2374.14
     34.6010	 3413.00	 3546.92	-1408.92	 2370.63
     34.6270	 3436.00	 3576.81	-1415.81	 2367.13
     34.6530	 3530.00	 3608.39	-1353.39	 2363.63
     34.6790	 3525.00	 3641.73	-1391.73	 2360.12
     34.7050	 3548.00	 3676.91	-1403.91	 2356.62
     34.7310	 3577.00	 3713.99	-1411.99	 2353.11
     34.7570	 3670.00	 3753.03	-1358.03	 2349.61
     34.7830	 3724.00	 3794.09	-1345.09	 2346.11
     34.8090	 3762.00	 3837.22	-1350.22	 2342.60
     34.8350	 3785.00	 3882.44	-1372.44	 2339.10
     34.8610	 3857.00	 3929.78	-1347.78	 2335.59
     34.8870	 3944.00	 3979.22	-1310.22	 2332.09
     34.9130	 4037.00	 4030.73	-1268.73	 2328.59
     34.9390	 4129.00	 4084.24	-1230.24	 2325.08
     34.9650	 4234.00	 4139.67	-1180.67	 2321.58
     34.9910	 4261.00	 4196.87	-1210.87	 2318.07
     35.0170	 4281.00	 4255.64	-1249.64	 2314.57
     35.0430	 4357.00	 4315.74	-1233.74	 2311.07
     35.0690	 4463.00	 4376.85	-1188.85	 2307.56
     35.0950	 4434.00	 4438.61	-1279.61	 2304.06
     35.1210	 4513.00	 4500.57	-1262.57	 2300.55
     35.1470	 4596.00	 4562.19	-1241.19	 2297.05
     35.1730	 4623.00	 4622.91	-1274.91	 2293.55
     35.1990	 4784.00	 4682.06	-1173.06	 2290.04
     35.2250	 4767.00	 4738.91	-1246.91	 2286.54
     35.2510	 4793.00	 4792.71	-1274.71	 2283.03
     35.2770	 4966.00	 4842.68	-1151.68	 2279.53
     35.3030	 4935.00	 4887.99	-1227.99	 2276.03
     35.3290	 4814.00	 4927.88	-1388.88	 2272.52
     35.3550	 4873.00	 4961.59	-1363.59	 2269.02
     35.3810	 5033.00	 4988.47	-1230.47	 2265.51
     35.4070	 5036.00	 5007.94	-1246.94	 2262.01
     35.4330	 5003.00	 5019.57	-1291.57	 2258.50
     35.4590	 5074.00	 5023.06	-1224.06	 2255.00
     35.4850	 5072.00	 5018.28	-1221.28	 2251.50
     35.5110	 5100.00	 5005.26	-1180.26	 2247.99
     35.5370	 5018.00	 4984.21	-1241.21	 2244.49
     35.5630	 5003.00	 4955.47	-1227.47	 2240.99
     35.5890	 4933.00	 4919.54	-1261.54	 2237.48
     35.6150	 4785.00	 4877.03	-1367.03	 2233.98
     35.6410	 4720.00	 4828.63	-1383.63	 2230.47
     35.6670	 4697.00	 4775.09	-1353.09	 2226.97
     35.6930	 4705.00	 4717.21	-1287.21	 2223.46
     35.7190	 4724.00	 4655.78	-1206.78	 2219.96
     35.7450	 4565.00	 4591.60	-1301.60	 2216.46
     35.7710	 4547.00	 4525.38	-1253.38	 2212.95
     35.7970	 4482.00	 4457.82	-1250.82	 2209.45
     35.8230	 4364.00	 4389.56	-1300.56	 2205.94
     35.8490	 4463.00	 4321.18	-1133.18	 2202.44
     35.8750	 4351.00	 4253.13	-1177.13	 2198.94
     35.9010	 4166.00	 4185.85	-1294.85	 2195.43
     35.9270	 4126.00	 4119.69	-1268.69	 2191.93
     35.9530	 4036.00	 4054.95	-1293.95	 2188.42
     35.9790	 3991.00	 3991.83	-1275.83	 2184.92
     36.0050	 3883.00	 3930.52	-1322.52	 2181.42
     36.0310	 3825.00	 3871.16	-1321.16	 2177.91
     36.0570	 3731.00	 3813.82	-1357.82	 2174.41
     36.0830	 3754.00	 3758.56	-1279.56	 2170.90
     36.1090	 3656.00	 3705.39	-1324.39	 2167.40
     36.1350	 3602.00	 3654.33	-1327.33	 2163.90
     36.1610	 3467.00	 3605.35	-1413.35	 2160.39
     36.1870	 3359.00	 3558.41	-1474.41	 2156.89
     36.2130	 3390.00	 3513.47	-1398.47	 2153.38
     36.2390	 3300.00	 3470.46	-1445.46	 2149.88
     36.2650	 3362.00	 3429.34	-1342.34	 2146.38
     36.2910	 3302.00	 3390.01	-1363.01	 2142.87
     36.3170	 3190.00	 3352.41	-1437.41	 2139.37
     36.3430	 3098.00	 3316.48	-1493.48	 2135.86
     36.3690	 3179.00	 3282.13	-1378.13	 2132.36
     36.3950	 3080.00	 3249.29	-1444.29	 2128.86
     36.4210	 3028.00	 3217.89	-1464.89	 2125.35
     36.4470	 2963.00	 3188.03	-1500.03	 2121.85
     36.4730	 2971.00	 3159.29	-1463.29	 2118.34
     36.4990	 2964.00	 3131.78	-1442.78	 2114.84
     36.5250	 3006.00	 3105.52	-1374.52	 2111.34
     36.5510	 2850.00	 3080.27	-1505.27	 2107.83
     36.5770	 2932.00	 3056.07	-1399.07	 2104.33
     36.6030	 2961.00	 3032.86	-1346.86	 2100.82
     36.6290	 2868.00	 3010.57	-1417.57	 2097.32
     36.6550	 2977.00	 2989.17	-1287.17	 2093.82
     36.6810	 2867.00	 2968.59	-1376.59	 2090.31
     36.7070	 2919.00	 2948.80	-1304.80	 2086.81
     36.7330	 2871.00	 2929.76	-1333.76	 2083.30
     36.7590	 2940.00	 2911.41	-1246.41	 2079.80
     36.7850	 2882.00	 2893.72	-1286.72	 2076.30
     36.8110	 2923.00	 2876.66	-1228.66	 2072.79
     36.8370	 2930.00	 2860.18	-1205.18	 2069.29
     36.8630	 2877.00	 2844.26	-1242.26	 2065.78
     36.8890	 2905.00	 2828.87	-1198.87	 2062.28
     36.9150	 3023.00	 2813.97	-1065.97	 2058.78
     36.9410	 2993.00	 2799.53	-1081.53	 2055.27
     36.9670	 2933.00	 2785.55	-1127.55	 2051.77
     36.9930	 2845.00	 2771.97	-1201.97	 2048.26
     37.0190	 2896.00	 2758.80	-1137.80	 2044.76
     37.0450	 2869.00	 2745.99	-1151.99	 2041.25
     37.0710	 2911.00	 2733.54	-1097.54	 2037.75
     37.0970	 2897.00	 2721.42	-1099.42	 2034.25
     37.1230	 2850.00	 2709.62	-1134.62	 2030.74
     37.1490	 2768.00	 2698.12	-1205.12	 2027.24
     37.1750	 2809.00	 2686.91	-1152.91	 2023.73
     37.2010	 2840.00	 2675.96	-1110.96	 2020.23
     37.2270	 2841.00	 2665.27	-1099.27	 2016.73
     37.2530	 2757.00	 2654.82	-1172.82	 2013.22
     37.2790	 2698.00	 2644.60	-1221.60	 2009.72
     37.3050	 2661.00	 2634.61	-1248.61	 2006.21
     37.3310	 2739.00	 2624.82	-1160.82	 2002.71
     37.3570	 2734.00	 2615.23	-1156.23	 1999.21
     37.3830	 2701.00	 2605.83	-1179.83	 1995.70
     37.4090	 2666.00	 2596.62	-1205.62	 1992.20
     37.4350	 2606.00	 2587.57	-1256.57	 1988.69
     37.4610	 2616.00	 2578.70	-1237.70	 1985.19
     37.4870	 2622.00	 2569.98	-1222.98	 1981.69
     37.5130	 2589.00	 2561.42	-1247.42	 1978.18
     37.5390	 2589.00	 2553.00	-1239.00	 1974.68
     37.5650	 2560.00	 2544.72	-1259.72	 1971.17
     37.5910	 2498.00	 2536.58	-1313.58	 1967.67
     37.6170	 2518.00	 2528.57	-1285.57	 1964.17
     37.6430	 2525.00	 2520.69	-1270.69	 1960.66
     37.6690	 2502.00	 2512.92	-1285.92	 1957.16
     37.6950	 2465.00	 2505.28	-1315.28	 1953.65
     37.7210	 2431.00	 2497.74	-1341.74	 1950.15
     37.7470	 2427.00	 2490.32	-1338.32	 1946.65
     37.7730	 2416.00	 2483.00	-1342.00	 1943.14
     37.7990	 2426.00	 2475.78	-1324.78	 1939.64
     37.8250	 2473.00	 2468.66	-1270.66	 1936.13
     37.8510	 2455.00	 2461.63	-1281.63	 1932.63
     37.8770	 2372.00	 2454.70	-1357.70	 1929.13
     37.9030	 2320.00	 2447.86	-1402.86	 1925.62
     37.9290	 2350.00	 2441.11	-1366.11	 1922.12
     37.9550	 2390.00	 2434.44	-1319.44	 1918.61
     37.9810	 2339.00	 2427.85	-1363.85	 1915.11
     38.0070	 2349.00	 2421.34	-1347.34	 1911.61
     38.0330	 2344.00	 2414.91	-1345.91	 1908.10
     38.0590	 2253.00	 2408.56	-1430.56	 1904.60
     38.0850	 2243.00	 2402.27	-1434.27	 1901.09
     38.1110	 2294.00	 2396.06	-1377.06	 1897.59
     38.1370	 2335.00	 2389.92	-1329.92	 1894.09
     38.1630	 2332.00	 2383.85	-1326.85	 1890.58
     38.1890	 2285.00	 2377.84	-1367.84	 1887.08
     38.2150	 2296.00	 2371.89	-1350.89	 1883.57
     38.2410	 2305.00	 2366.01	-1336.01	 1880.07
     38.2670	 2288.00	 2360.19	-1347.19	 1876.57
     38.2930	 2304.00	 2354.69	-1325.69	 1873.32
     38.3190	 2336.00	 2351.24	-1290.24	 1872.08
     38.3450	 2319.00	 2347.85	-1303.85	 1870.83
     38.3710	 2304.00	 2344.51	-1315.51	 1869.59
     38.3970	 2315.00	 2341.23	-1301.23	 1868.35
     38.4230	 2321.00	 2338.00	-1292.00	 1867.10
     38.4490	 2306.00	 2334.81	-1303.81	 1865.86
     38.4750	 2228.00	 2331.68	-1378.68	 1864.61
     38.5010	 2284.00	 2328.59	-1319.59	 1863.37
     38.5270	 2271.00	 2325.55	-1329.55	 1862.13
     38.5530	 2368.00	 2322.56	-1229.56	 1860.88
     38.5790	 2294.00	 2319.61	-1300.61	 1859.64
     38.6050	 2238.00	 2316.70	-1353.70	 1858.40
     38.6310	 2225.00	 2313.83	-1363.83	 1857.15
     38.6570	 2231.00	 2311.01	-1355.01	 1855.91
     38.6830	 2276.00	 2308.22	-1307.22	 1854.66
     38.7090	 2288.00	 2305.48	-1292.48	 1853.42
     38.7350	 2189.00	 2302.77	-1388.77	 1852.18
     38.7610	 2222.00	 2300.09	-1353.09	 1850.93
     38.7870	 2333.00	 2297.46	-1239.46	 1849.69
     38.8130	 2270.00	 2294.86	-1299.86	 1848.44
     38.8390	 2323.00	 2292.29	-1244.29	 1847.20
     38.8650	 2220.00	 2289.76	-1344.76	 1845.96
     38.8910	 2290.00	 2287.26	-1272.26	 1844.71
     38.9170	 2253.00	 2284.79	-1306.79	 1843.47
     38.9430	 2236.00	 2282.35	-1321.35	 1842.22
     38.9690	 2145.00	 2279.95	-1409.95	 1840.98
     38.9950	 2281.00	 2277.57	-1271.57	 1839.74
     39.0210	 2265.00	 2275.23	-1285.23	 1838.49
     39.0470	 2255.00	 2272.91	-1292.91	 1837.25
     39.0730	 2247.00	 2270.62	-1298.62	 1836.00
     39.0990	 2271.00	 2268.35	-1272.35	 1834.76
     39.1250	 2299.00	 2266.12	-1242.12	 1833.52
     39.1510	 2308.00	 2263.91	-1230.91	 1832.27
     39.1770	 2230.00	 2261.72	-1306.72	 1831.03
     39.2030	 2193.00	 2259.57	-1341.57	 1829.78
     39.2290	 2206.00	 2257.43	-1326.43	 1828.54
     39.2550	 2191.00	 2255.32	-1339.32	 1827.30
     39.2810	 2324.00	 2253.24	-1204.24	 1826.05
     39.3070	 2201.00	 2251.19	-1325.19	 1824.81
     39.3330	 2198.00	 2249.16	-1326.16	 1823.57
     39.3590	 2260.00	 2247.14	-1262.14	 1822.32
     39.3850	 2261.00	 2245.15	-1259.15	 1821.08
     39.4110	 2265.00	 2243.18	-1253.18	 1819.83
     39.4370	 2248.00	 2241.23	-1268.23	 1818.59
     39.4630	 2254.00	 2239.30	-1260.30	 1817.35
     39.4890	 2268.00	 2237.40	-1244.40	 1816.10
     39.5150	 2253.00	 2235.51	-1257.51	 1814.86
     39.5410	 2204.00	 2233.64	-1304.64	 1813.61
     39.5670	 2222.00	 2231.79	-1284.79	 1812.37
     39.5930	 2209.00	 2229.97	-1295.97	 1811.13
     39.6190	 2189.00	 2228.16	-1314.16	 1809.88
     39.6450	 2180.00	 2226.37	-1321.37	 1808.64
     39.6710	 2156.00	 2224.60	-1343.60	 1807.39
     39.6970	 2148.00	 2222.85	-1349.85	 1806.15
     39.7230	 2197.00	 2221.12	-1299.12	 1804.91
     39.7490	 2207.00	 2219.41	-1287.41	 1803.66
     39.7750	 2190.00	 2217.71	-1302.71	 1802.42
     39.8010	 2162.00	 2216.04	-1329.04	 1801.17
     39.8270	 2218.00	 2214.38	-1271.38	 1799.93
     39.8530	 2226.00	 2212.74	-1261.74	 1798.69
     39.8790	 2160.00	 2211.12	-1326.12	 1797.44
     39.9050	 2158.00	 2209.52	-1326.52	 1796.20
     39.9310	 2214.00	 2207.93	-1268.93	 1794.95
     39.9570	 2219.00	 2206.37	-1262.37	 1793.71
     39.9830	 2246.00	 2204.82	-1233.82	 1792.47
     40.0090	 2190.00	 2203.29	-1288.29	 1791.22
     40.0350	 2179.00	 2201.77	-1297.77	 1789.98
     40.0610	 2208.00	 2200.28	-1267.28	 1788.74
     40.0870	 2193.00	 2198.80	-1280.80	 1787.49
     40.1130	 2153.00	 2197.34	-1319.34	 1786.25
     40.1390	 2232.00	 2195.90	-1238.90	 1785.00
     40.1650	 2257.00	 2194.48	-1212.48	 1783.76
     40.1910	 2246.00	 2193.07	-1222.07	 1782.52
     40.2170	 2219.00	 2191.69	-1247.69	 1781.27
     40.2430	 2137.00	 2190.32	-1328.32	 1780.03
     40.2690	 2192.00	 2188.97	-1271.97	 1778.78
     40.2950	 2186.00	 2187.64	-1276.64	 1777.54
     40.3210	 2165.00	 2186.33	-1296.33	 1776.30
     40.3470	 2214.00	 2185.04	-1246.04	 1775.05
     40.3730	 2236.00	 2183.77	-1222.77	 1773.81
     40.3990	 2234.00	 2182.52	-1223.52	 1772.56
     40.4250	 2203.00	 2181.28	-1253.28	 1771.32
     40.4510	 2192.00	 2180.07	-1263.07	 1770.08
     40.4770	 2228.00	 2178.88	-1225.88	 1768.83
     40.5030	 2217.00	 2177.72	-1235.72	 1767.59
     40.5290	 2172.00	 2176.57	-1279.57	 1766.34
     40.5550	 2209.00	 2175.44	-1241.44	 1765.10
     40.5810	 2204.00	 2174.34	-1245.34	 1763.86
     40.6070	 2194.00	 2173.26	-1254.26	 1762.61
     40.6330	 2230.00	 2172.21	-1217.21	 1761.37
     40.6590	 2236.00	 2171.18	-1210.18	 1760.12
     40.6850	 2184.00	 2170.17	-1261.17	 1758.88
     40.7110	 2188.00	 2169.19	-1256.19	 1757.64
     40.7370	 2204.00	 2168.23	-1239.23	 1756.39
     40.7630	 2222.00	 2167.30	-1220.30	 1755.15
     40.7890	 2203.00	 2166.40	-1238.40	 1753.91
     40.8150	 2197.00	 2165.76	-1243.76	 1752.89
     40.8410	 2232.00	 2165.20	-1208.20	 1751.92
     40.8670	 2256.00	 2164.67	-1183.67	 1750.96
     40.8930	 2229.00	 2164.16	-1210.16	 1750.00
     40.9190	 2178.00	 2163.70	-1260.70	 1749.03
     40.9450	 2215.00	 2163.26	-1223.26	 1748.07
     40.9710	 2251.00	 2162.86	-1186.86	 1747.11
     40.9970	 2289.00	 2162.50	-1148.50	 1746.14
     41.0230	 2310.00	 2162.17	-1127.17	 1745.18
     41.0490	 2266.00	 2161.88	-1170.88	 1744.21
     41.0750	 2190.00	 2161.64	-1246.64	 1743.25
     41.1010	 2304.00	 2161.43	-1132.43	 1742.29
     41.1270	 2178.00	 2161.27	-1258.27	 1741.32
     41.1530	 2204.00	 2161.16	-1232.16	 1740.36
     41.1790	 2221.00	 2161.09	-1215.09	 1739.39
     41.2050	 2202.00	 2161.07	-1234.07	 1738.43
     41.2310	 2256.00	 2161.10	-1180.10	 1737.47
     41.2570	 2220.00	 2161.19	-1216.19	 1736.50
     41.2830	 2151.00	 2161.34	-1285.34	 1735.54
     41.3090	 2184.00	 2161.54	-1252.54	 1734.57
     41.3350	 2232.00	 2161.81	-1204.81	 1733.61
     41.3610	 2228.00	 2162.14	-1209.14	 1732.65
     41.3870	 2254.00	 2162.54	-1183.54	 1731.68
     41.4130	 2196.00	 2163.02	-1242.02	 1730.72
     41.4390	 2151.00	 2163.57	-1287.57	 1729.76
     41.4650	 2228.00	 2164.20	-1211.20	 1728.79
     41.4910	 2296.00	 2164.92	-1143.92	 1727.83
     41.5170	 2270.00	 2165.72	-1170.72	 1726.86
     41.5430	 2257.00	 2166.62	-1184.62	 1725.90
     41.5690	 2212.00	 2167.62	-1230.62	 1724.94
     41.5950	 2192.00	 2168.73	-1251.73	 1723.97
     41.6210	 2268.00	 2169.95	-1176.95	 1723.01
     41.6470	 2226.00	 2171.28	-1220.28	 1722.04
     41.6730	 2299.00	 2172.75	-1148.75	 1721.08
     41.6990	 2151.00	 2174.34	-1298.34	 1720.12
     41.7250	 2306.00	 2176.08	-1145.08	 1719.15
     41.7510	 2209.00	 2177.97	-1243.97	 1718.19
     41.7770	 2252.00	 2180.02	-1203.02	 1717.23
     41.8030	 2217.00	 2182.24	-1240.24	 1716.26
     41.8290	 2157.00	 2184.65	-1302.65	 1715.30
     41.8550	 2277.00	 2187.25	-1185.25	 1714.33
     41.8810	 2195.00	 2190.05	-1270.05	 1713.37
     41.9070	 2238.00	 2193.09	-1230.09	 1712.41
     41.9330	 2213.00	 2196.36	-1258.36	 1711.44
     41.9590	 2137.00	 2199.89	-1337.89	 1710.48
     41.9850	 2169.00	 2203.69	-1309.69	 1709.51
     42.0110	 2257.00	 2207.79	-1225.79	 1708.55
     42.0370	 2204.00	 2212.20	-1283.20	 1707.59
     42.0630	 2203.00	 2216.96	-1288.96	 1706.62
     42.0890	 2231.00	 2222.08	-1266.08	 1705.66
     42.1150	 2258.00	 2227.60	-1244.60	 1704.69
     42.1410	 2183.00	 2233.55	-1325.55	 1703.73
     42.1670	 2166.00	 2239.95	-1348.95	 1702.77
     42.1930	 2177.00	 2246.85	-1344.85	 1701.80
     42.2190	 2181.00	 2254.28	-1348.28	 1700.84
     42.2450	 2207.00	 2262.28	-1330.28	 1699.88
     42.2710	 2264.00	 2270.91	-1281.91	 1698.91
     42.2970	 2183.00	 2280.20	-1372.20	 1697.95
     42.3230	 2256.00	 2290.67	-1309.67	 1696.98
     42.3490	 2249.00	 2301.47	-1327.47	 1696.02
     42.3750	 2248.00	 2313.10	-1340.10	 1695.06
     42.4010	 2280.00	 2325.63	-1320.63	 1694.09
     42.4270	 2352.00	 2339.35	-1262.35	 1693.13
     42.4530	 2355.00	 2353.88	-1273.88	 1692.16
     42.4790	 2345.00	 2369.51	-1299.51	 1691.20
     42.5050	 2379.00	 2386.33	-1282.33	 1690.24
     42.5310	 2437.00	 2404.39	-1242.39	 1689.27
     42.5570	 2428.00	 2423.76	-1270.76	 1688.31
     42.5830	 2439.00	 2444.51	-1280.51	 1687.35
     42.6090	 2503.00	 2466.70	-1238.70	 1686.38
     42.6350	 2529.00	 2490.35	-1236.35	 1685.42
     42.6610	 2590.00	 2515.49	-1200.49	 1684.45
     42.6870	 2620.00	 2542.11	-1197.11	 1683.49
     42.7130	 2635.00	 2570.17	-1210.17	 1682.53
     42.7390	 2668.00	 2599.57	-1206.57	 1681.56
     42.7650	 2757.00	 2630.17	-1148.17	 1680.60
     42.7910	 2744.00	 2661.75	-1192.75	 1679.63
     42.8170	 2760.00	 2694.02	-1209.02	 1678.67
     42.8430	 2782.00	 2726.60	-1219.60	 1677.71
     42.8690	 2750.00	 2759.01	-1284.01	 1676.74
     42.8950	 2800.00	 2790.72	-1265.72	 1675.78
     42.9210	 2845.00	 2821.05	-1251.05	 1674.81
     42.9470	 2825.00	 2849.33	-1299.33	 1673.85
     42.9730	 2860.00	 2874.79	-1289.79	 1672.89
     42.9990	 2947.00	 2896.72	-1224.72	 1671.92
     43.0250	 2898.00	 2914.43	-1291.43	 1670.96
     43.0510	 2852.00	 2927.30	-1350.30	 1670.00
     43.0770	 2924.00	 2934.90	-1285.90	 1669.03
     43.1030	 2912.00	 2936.94	-1299.94	 1668.07
     43.1290	 2863.00	 2933.32	-1345.32	 1667.10
     43.1550	 2832.00	 2924.15	-1367.15	 1666.14
     43.1810	 2802.00	 2909.73	-1382.73	 1665.18
     43.2070	 2811.00	 2890.50	-1354.50	 1664.21
     43.2330	 2836.00	 2867.06	-1306.06	 1663.25
     43.2590	 2791.00	 2840.07	-1324.07	 1662.28
     43.2850	 2747.00	 2810.24	-1338.24	 1661.32
     43.3110	 2707.00	 2778.30	-1346.30	 1660.36
     43.3370	 2628.00	 2744.92	-1391.92	 1659.39
     43.3630	 2704.00	 2710.75	-1281.75	 1658.43
     43.3890	 2694.00	 2676.32	-1257.32	 1657.47
     43.4150	 2658.00	 2642.11	-1259.11	 1656.50
     43.4410	 2555.00	 2608.52	-1328.52	 1655.54
     43.4670	 2514.00	 2575.84	-1336.84	 1654.57
     43.4930	 2506.00	 2544.29	-1313.29	 1653.61
     43.5190	 2510.00	 2514.03	-1279.03	 1652.65
     43.5450	 2477.00	 2485.17	-1283.17	 1651.68
     43.5710	 2445.00	 2457.77	-1287.77	 1650.72
     43.5970	 2427.00	 2431.83	-1279.83	 1649.75
     43.6230	 2410.00	 2407.36	-1272.36	 1648.79
     43.6490	 2368.00	 2384.30	-1291.30	 1647.83
     43.6750	 2271.00	 2362.63	-1366.63	 1646.86
     43.7010	 2232.00	 2342.28	-1385.28	 1645.90
     43.7270	 2261.00	 2323.18	-1337.18	 1644.93
     43.7530	 2209.00	 2305.26	-1371.26	 1643.97
     43.7790	 2261.00	 2288.47	-1302.47	 1643.01
     43.8050	 2266.00	 2272.71	-1281.71	 1642.04
     43.8310	 2285.00	 2257.93	-1247.93	 1641.08
     43.8570	 2200.00	 2244.06	-1319.06	 1640.12
     43.8830	 2132.00	 2231.04	-1374.04	 1639.15
     43.9090	 2180.00	 2218.80	-1313.80	 1638.19
     43.9350	 2123.00	 2207.30	-1359.30	 1637.22
     43.9610	 2183.00	 2196.47	-1288.47	 1636.26
     43.9870	 2115.00	 2186.28	-1346.28	 1635.30
     44.0130	 2079.00	 2176.67	-1372.67	 1634.33
     44.0390	 2109.00	 2167.59	-1333.59	 1633.37
     44.0650	 2066.00	 2159.02	-1368.02	 1632.40
     44.0910	 2068.00	 2150.92	-1357.92	 1631.44
     44.1170	 2068.00	 2143.25	-1350.25	 1630.48
     44.1430	 2046.00	 2135.98	-1364.98	 1629.51
     44.1690	 2000.00	 2129.08	-1404.08	 1628.55
     44.1950	 2077.00	 2122.53	-1320.53	 1627.59
     44.2210	 2036.00	 2116.30	-1355.30	 1626.62
     44.2470	 2069.00	 2110.36	-1316.36	 1625.66
     44.2730	 1996.00	 2104.71	-1383.71	 1624.69
     44.2990	 2077.00	 2099.32	-1297.32	 1623.73
     44.3250	 2022.00	 2094.18	-1347.18	 1622.77
     44.3510	 2052.00	 2089.26	-1312.26	 1621.80
     44.3770	 2059.00	 2084.55	-1300.55	 1620.84
     44.4030	 2037.00	 2080.04	-1318.04	 1619.87
     44.4290	 2091.00	 2075.72	-1259.72	 1618.91
     44.4550	 2061.00	 2071.57	-1285.57	 1617.95
     44.4810	 1996.00	 2067.58	-1346.58	 1616.98
     44.5070	 2024.00	 2063.75	-1314.75	 1616.02
     44.5330	 2031.00	 2060.06	-1304.06	 1615.05
     44.5590	 2047.00	 2056.51	-1284.51	 1614.09
     44.5850	 2004.00	 2053.09	-1324.09	 1613.13
     44.6110	 2035.00	 2049.79	-1289.79	 1612.16
     44.6370	 2001.00	 2046.60	-1320.60	 1611.20
     44.6630	 2051.00	 2043.52	-1267.52	 1610.24
     44.6890	 2005.00	 2040.55	-1310.55	 1609.27
     44.7150	 2027.00	 2037.67	-1285.67	 1608.31
     44.7410	 2153.00	 2034.88	-1156.88	 1607.34
     44.7670	 2130.00	 2032.18	-1177.18	 1606.38
     44.7930	 1965.00	 2029.56	-1339.56	 1605.42
     44.8190	 2077.00	 2027.02	-1225.02	 1604.45
     44.8450	 2017.00	 2024.56	-1282.56	 1603.49
     44.8710	 2066.00	 2022.16	-1231.16	 1602.52
     44.8970	 2017.00	 2019.84	-1277.84	 1601.56
     44.9230	 2026.00	 2017.58	-1266.58	 1600.60
     44.9490	 2065.00	 2015.39	-1225.39	 1599.63
     44.9750	 2084.00	 2013.25	-1204.25	 1598.67
     45.0010	 1992.00	 2011.17	-1294.17	 1597.71
     45.0270	 2000.00	 2009.15	-1284.15	 1596.74
     45.0530	 2007.00	 2007.18	-1275.18	 1595.78
     45.0790	 2016.00	 2005.26	-1264.26	 1594.81
     45.1050	 1999.00	 2003.39	-1279.39	 1593.85
     45.1310	 1992.00	 2001.56	-1284.56	 1592.89
     45.1570	 2039.00	 1999.79	-1235.79	 1591.92
     45.1830	 2016.00	 1998.06	-1257.06	 1590.96
     45.2090	 1999.00	 1996.37	-1272.37	 1589.99
     45.2350	 1986.00	 1994.72	-1283.72	 1589.03
     45.2610	 1999.00	 1993.12	-1269.12	 1588.07
     45.2870	 2023.00	 1991.55	-1243.55	 1587.10
     45.3130	 2025.00	 1990.03	-1240.03	 1586.14
     45.3390	 2030.00	 1988.57	-1233.57	 1585.17
     45.3650	 2016.00	 1987.12	-1246.12	 1584.21
     45.3910	 1964.00	 1985.71	-1296.71	 1583.25
     45.4170	 1987.00	 1984.33	-1272.33	 1582.28
     45.4430	 2054.00	 1983.00	-1204.00	 1581.32
     45.4690	 2032.00	 1981.70	-1224.70	 1580.36
     45.4950	 2012.00	 1980.43	-1243.43	 1579.39
     45.5210	 1984.00	 1979.19	-1270.19	 1578.43
     45.5470	 2001.00	 1977.99	-1251.99	 1577.46
     45.5730	 2026.00	 1976.82	-1225.82	 1576.50
     45.5990	 2002.00	 1975.69	-1248.69	 1575.54
     45.6250	 1971.00	 1974.59	-1278.59	 1574.57
     45.6510	 1961.00	 1973.53	-1287.53	 1573.61
     45.6770	 2006.00	 1972.50	-1241.50	 1572.64
     45.7030	 2007.00	 1971.50	-1239.50	 1571.68
     45.7290	 1973.00	 1970.54	-1272.54	 1570.72
     45.7550	 1976.00	 1969.61	-1268.61	 1569.75
     45.7810	 1975.00	 1968.72	-1268.72	 1568.79
     45.8070	 1991.00	 1967.87	-1251.87	 1567.83
     45.8330	 2001.00	 1967.05	-1241.05	 1566.86
     45.8590	 1980.00	 1966.27	-1261.27	 1565.90
     45.8850	 2000.00	 1965.53	-1240.53	 1564.93
     45.9110	 1995.00	 1964.82	-1244.82	 1563.97
     45.9370	 2004.00	 1964.16	-1235.16	 1563.01
     45.9630	 1992.00	 1963.53	-1246.53	 1562.04
     45.9890	 1944.00	 1962.94	-1293.94	 1561.08
     46.0150	 2014.00	 1962.40	-1223.40	 1560.11
     46.0410	 2029.00	 1961.89	-1207.89	 1559.15
     46.0670	 1999.00	 1961.44	-1237.44	 1558.19
     46.0930	 1980.00	 1961.02	-1256.02	 1557.22
     46.1190	 1981.00	 1960.65	-1254.65	 1556.26
     46.1450	 1964.00	 1960.33	-1271.33	 1555.29
     46.1710	 1978.00	 1960.05	-1257.05	 1554.33
     46.1970	 1980.00	 1959.82	-1254.82	 1553.37
     46.2230	 1933.00	 1959.64	-1301.64	 1552.40
     46.2490	 1966.00	 1959.52	-1268.52	 1551.44
     46.2750	 1955.00	 1959.44	-1279.44	 1550.48
     46.3010	 1861.00	 1959.41	-1373.41	 1549.51
     46.3270	 1883.00	 1959.44	-1351.44	 1548.55
     46.3530	 1880.00	 1959.52	-1354.52	 1547.58
     46.3790	 1971.00	 1959.66	-1263.66	 1546.62
     46.4050	 1988.00	 1959.85	-1246.85	 1545.66
     46.4310	 1970.00	 1960.09	-1265.09	 1544.69
     46.4570	 1955.00	 1960.39	-1280.39	 1543.73
     46.4830	 1970.00	 1960.74	-1265.74	 1542.76
     46.5090	 1873.00	 1961.14	-1363.14	 1541.80
     46.5350	 1940.00	 1961.59	-1296.59	 1540.84
     46.5610	 2017.00	 1962.09	-1220.09	 1539.87
     46.5870	 1995.00	 1962.63	-1242.63	 1538.91
     46.6130	 1883.00	 1963.22	-1355.22	 1537.94
     46.6390	 1939.00	 1963.84	-1299.84	 1536.98
     46.6650	 2007.00	 1964.50	-1232.50	 1536.02
     46.6910	 1964.00	 1965.18	-1276.18	 1535.05
     46.7170	 1883.00	 1965.88	-1357.88	 1534.09
     46.7430	 1906.00	 1966.59	-1335.59	 1533.13
     46.7690	 1879.00	 1967.30	-1363.30	 1532.16
     46.7950	 1959.00	 1968.01	-1284.01	 1531.20
     46.8210	 1947.00	 1968.69	-1296.69	 1530.23
     46.8470	 1981.00	 1969.35	-1263.35	 1529.27
     46.8730	 1954.00	 1969.97	-1290.97	 1528.31
     46.8990	 1913.00	 1970.52	-1332.52	 1527.34
     46.9250	 1944.00	 1971.01	-1302.01	 1526.38
     46.9510	 1923.00	 1971.42	-1323.42	 1525.41
     46.9770	 1982.00	 1971.72	-1264.72	 1524.45
     47.0030	 1966.00	 1971.91	-1280.91	 1523.49
     47.0290	 1896.00	 1971.98	-1350.98	 1522.52
     47.0550	 1929.00	 1971.91	-1317.91	 1521.56
     47.0810	 1941.00	 1971.68	-1305.68	 1520.60
     47.1070	 1953.00	 1971.30	-1293.30	 1519.63
     47.1330	 1954.00	 1970.75	-1291.75	 1518.67
     47.1590	 1956.00	 1970.02	-1289.02	 1517.70
     47.1850	 1912.00	 1969.11	-1332.11	 1516.74
     47.2110	 1986.00	 1968.02	-1257.02	 1515.78
     47.2370	 1955.00	 1966.75	-1286.75	 1514.81
     47.2630	 1905.00	 1965.30	-1335.30	 1513.85
     47.2890	 1931.00	 1963.67	-1307.67	 1512.88
     47.3150	 1927.00	 1961.88	-1309.88	 1511.92
     47.3410	 1873.00	 1959.93	-1361.93	 1510.96
     47.3670	 1899.00	 1957.83	-1333.83	 1509.99
     47.3930	 1866.00	 1955.60	-1364.60	 1509.03
     47.4190	 1879.00	 1953.24	-1349.24	 1508.06
     47.4450	 1889.00	 1950.77	-1336.77	 1507.10
     47.4710	 1893.00	 1948.20	-1330.20	 1506.14
     47.4970	 1912.00	 1945.55	-1308.55	 1505.17
     47.5230	 1870.00	 1942.83	-1347.83	 1504.21
     47.5490	 1874.00	 1940.06	-1341.06	 1503.25
     47.5750	 1947.00	 1937.25	-1265.25	 1502.28
     47.6010	 1962.00	 1934.40	-1247.40	 1501.32
     47.6270	 1949.00	 1931.54	-1257.54	 1500.35
     47.6530	 1962.00	 1928.67	-1241.67	 1499.39
     47.6790	 1891.00	 1925.80	-1309.80	 1498.43
     47.7050	 1886.00	 1922.94	-1311.94	 1497.46
     47.7310	 1879.00	 1920.10	-1316.10	 1496.50
     47.7570	 1934.00	 1917.29	-1258.29	 1495.53
     47.7830	 1940.00	 1914.50	-1249.50	 1494.57
     47.8090	 1918.00	 1911.75	-1268.75	 1493.61
     47.8350	 1956.00	 1909.04	-1228.04	 1492.64
     47.8610	 1962.00	 1906.37	-1219.37	 1491.68
     47.8870	 1905.00	 1903.74	-1273.74	 1490.72
     47.9130	 1874.00	 1901.16	-1302.16	 1489.75
     47.9390	 1865.00	 1898.63	-1308.63	 1488.79
     47.9650	 1890.00	 1896.15	-1281.15	 1487.82
     47.9910	 1910.00	 1893.72	-1258.72	 1486.86
     48.0170	 1912.00	 1891.04	-1254.04	 1486.07
     48.0430	 1931.00	 1889.20	-1233.20	 1485.60
     48.0690	 1934.00	 1887.41	-1228.41	 1485.13
     48.0950	 1868.00	 1885.67	-1292.67	 1484.66
     48.1210	 1839.00	 1883.97	-1319.97	 1484.19
     48.1470	 1900.00	 1882.09	-1257.09	 1483.72
     48.1730	 1953.00	 1880.49	-1202.49	 1483.25
     48.1990	 1970.00	 1878.93	-1183.93	 1482.77
     48.2250	 1954.00	 1877.42	-1198.42	 1482.30
     48.2510	 1933.00	 1875.95	-1217.95	 1481.83
     48.2770	 1948.00	 1874.52	-1201.52	 1481.36
     48.3030	 1934.00	 1873.13	-1214.13	 1480.89
     48.3290	 1885.00	 1871.77	-1261.77	 1480.42
     48.3550	 1851.00	 1870.46	-1294.46	 1479.95
     48.3810	 1849.00	 1869.18	-1295.18	 1479.48
     48.4070	 1877.00	 1867.93	-1265.93	 1479.01
     48.4330	 1895.00	 1866.72	-1246.72	 1478.54
     48.4590	 1886.00	 1865.53	-1254.53	 1478.07
     48.4850	 1844.00	 1864.38	-1295.38	 1477.60
     48.5110	 1841.00	 1863.26	-1297.26	 1477.13
     48.5370	 1847.00	 1862.17	-1290.17	 1476.66
     48.5630	 1874.00	 1861.10	-1262.10	 1476.19
     48.5890	 1930.00	 1860.06	-1205.06	 1475.72
     48.6150	 1879.00	 1859.05	-1255.05	 1475.25
     48.6410	 1841.00	 1858.06	-1292.06	 1474.78
     48.6670	 1880.00	 1857.09	-1252.09	 1474.31
     48.6930	 1843.00	 1856.15	-1288.15	 1473.83
     48.7190	 1847.00	 1855.22	-1283.22	 1473.36
     48.7450	 1844.00	 1854.32	-1285.32	 1472.89
     48.7710	 1845.00	 1853.44	-1283.44	 1472.42
     48.7970	 1877.00	 1852.58	-1250.58	 1471.95
     48.8230	 1879.00	 1851.73	-1247.73	 1471.48
     48.8490	 1922.00	 1850.91	-1203.91	 1471.01
     48.8750	 1861.00	 1850.10	-1264.10	 1470.54
     48.9010	 1868.00	 1849.31	-1256.31	 1470.07
     48.9270	 1908.00	 1848.54	-1215.54	 1469.60
     48.9530	 1897.00	 1847.78	-1225.78	 1469.13
     48.9790	 1975.00	 1847.03	-1147.03	 1468.66
     49.0050	 1852.00	 1846.30	-1269.30	 1468.19
     49.0310	 1886.00	 1845.59	-1234.59	 1467.72
     49.0570	 1884.00	 1844.89	-1235.89	 1467.25
     49.0830	 1798.00	 1844.20	-1321.20	 1466.78
     49.1090	 1898.00	 1843.53	-1220.53	 1466.31
     49.1350	 1883.00	 1842.87	-1234.87	 1465.84
     49.1610	 1899.00	 1842.22	-1218.22	 1465.37
     49.1870	 1847.00	 1841.58	-1269.58	 1464.90
     49.2130	 1846.00	 1840.95	-1269.95	 1464.42
     49.2390	 1807.00	 1840.34	-1308.34	 1463.95
     49.2650	 1841.00	 1839.74	-1273.74	 1463.48
     49.2910	 1820.00	 1839.15	-1294.15	 1463.01
     49.3170	 1908.00	 1838.56	-1205.56	 1462.54
     49.3430	 1853.00	 1837.99	-1259.99	 1462.07
     49.3690	 1907.00	 1837.43	-1205.43	 1461.60
     49.3950	 1762.00	 1836.88	-1349.88	 1461.13
     49.4210	 1790.00	 1836.34	-1321.34	 1460.66
     49.4470	 1846.00	 1835.81	-1264.81	 1460.19
     49.4730	 1864.00	 1835.29	-1246.29	 1459.72
     49.4990	 1823.00	 1834.77	-1286.77	 1459.25
     49.5250	 1778.00	 1834.27	-1331.27	 1458.78
     49.5510	 1802.00	 1833.77	-1306.77	 1458.31
     49.5770	 1854.00	 1833.29	-1254.29	 1457.84
     49.6030	 1956.00	 1832.81	-1151.81	 1457.37
     49.6290	 1851.00	 1832.34	-1256.34	 1456.90
     49.6550	 1855.00	 1831.88	-1251.88	 1456.43
     49.6810	 1905.00	 1831.43	-1201.43	 1455.96
     49.7070	 1861.00	 1830.99	-1244.99	 1455.48
     49.7330	 1863.00	 1830.55	-1242.55	 1455.01
     49.7590	 1821.00	 1830.13	-1284.13	 1454.54
     49.7850	 1908.00	 1829.71	-1196.71	 1454.07
     49.8110	 1834.00	 1829.30	-1270.30	 1453.60
     49.8370	 1871.00	 1828.90	-1232.90	 1453.13
     49.8630	 1818.00	 1828.51	-1285.51	 1452.66
     49.8890	 1886.00	 1828.12	-1217.12	 1452.19
     49.9150	 1843.00	 1827.74	-1259.74	 1451.72
     49.9410	 1917.00	 1827.38	-1185.38	 1451.25
     49.9670	 1939.00	 1827.02	-1163.02	 1450.78
     49.9930	 1909.00	 1826.66	-1192.66	 1450.31
     50.0190	 1880.00	 1826.32	-1221.32	 1449.84
     50.0450	 1928.00	 1825.98	-1172.98	 1449.37
     50.0710	 1863.00	 1825.66	-1237.66	 1448.90
     50.0970	 1831.00	 1825.34	-1269.34	 1448.43
     50.1230	 1892.00	 1825.03	-1208.03	 1447.96
     50.1490	 1911.00	 1824.72	-1188.72	 1447.49
     50.1750	 1917.00	 1824.43	-1182.43	 1447.02
     50.2010	 1864.00	 1824.15	-1235.15	 1446.54
     50.2270	 1844.00	 1823.90	-1254.90	 1446.07
     50.2530	 1814.00	 1823.63	-1284.63	 1445.60
     50.2790	 1851.00	 1823.37	-1247.37	 1445.13
     50.3050	 1879.00	 1823.12	-1219.12	 1444.66
     50.3310	 1843.00	 1822.88	-1254.88	 1444.19
     50.3570	 1882.00	 1822.66	-1215.66	 1443.72
     50.3830	 1943.00	 1822.44	-1154.44	 1443.25
     50.4090	 1921.00	 1822.23	-1176.23	 1442.78
     50.4350	 1854.00	 1822.03	-1243.03	 1442.31
     50.4610	 1876.00	 1821.84	-1220.84	 1441.84
     50.4870	 1860.00	 1821.66	-1236.66	 1441.37
     50.5130	 1861.00	 1821.48	-1235.48	 1440.90
     50.5390	 1891.00	 1821.32	-1205.32	 1440.43
     50.5650	 1909.00	 1821.17	-1187.17	 1439.96
     50.5910	 1866.00	 1821.03	-1230.03	 1439.49
     50.6170	 1840.00	 1820.91	-1255.91	 1439.02
     50.6430	 1875.00	 1820.79	-1220.79	 1438.55
     50.6690	 1866.00	 1820.68	-1229.68	 1438.08
     50.6950	 1849.00	 1820.59	-1246.59	 1437.60
     50.7210	 1824.00	 1820.51	-1271.51	 1437.13
     50.7470	 1807.00	 1820.44	-1288.44	 1436.66
     50.7730	 1889.00	 1820.38	-1206.38	 1436.19
     50.7990	 1929.00	 1820.34	-1166.34	 1435.72
     50.8250	 1876.00	 1820.31	-1219.31	 1435.25
     50.8510	 1874.00	 1820.29	-1221.29	 1434.78
     50.8770	 1900.00	 1820.29	-1195.29	 1434.31
     50.9030	 1935.00	 1820.30	-1160.30	 1433.84
     50.9290	 1930.00	 1820.33	-1165.33	 1433.37
     50.9550	 1895.00	 1820.37	-1200.37	 1432.90
     50.9810	 1903.00	 1820.43	-1192.43	 1432.43
     51.0070	 1873.00	 1820.50	-1222.50	 1431.96
     51.0330	 1874.00	 1820.59	-1221.59	 1431.49
     51.0590	 1907.00	 1820.70	-1188.70	 1431.02
     51.0850	 1891.00	 1820.82	-1204.82	 1430.55
     51.1110	 1863.00	 1820.96	-1232.96	 1430.08
     51.1370	 1790.00	 1821.12	-1306.12	 1429.61
     51.1630	 1766.00	 1821.30	-1330.30	 1429.14
     51.1890	 1886.00	 1821.50	-1210.50	 1428.66
     51.2150	 1886.00	 1821.72	-1210.72	 1428.19
     51.2410	 1865.00	 1821.96	-1231.96	 1427.72
     51.2670	 1849.00	 1822.22	-1248.22	 1427.25
     51.2930	 1808.00	 1822.50	-1289.50	 1426.78
     51.3190	 1802.00	 1822.81	-1295.81	 1426.31
     51.3450	 1826.00	 1823.13	-1272.13	 1425.84
     51.3710	 1866.00	 1823.49	-1232.49	 1425.37
     51.3970	 1843.00	 1823.86	-1255.86	 1424.90
     51.4230	 1895.00	 1824.27	-1204.27	 1424.43
     51.4490	 1880.00	 1824.70	-1219.70	 1423.96
     51.4750	 1864.00	 1825.16	-1236.16	 1423.49
     51.5010	 1873.00	 1825.64	-1227.64	 1423.02
     51.5270	 1862.00	 1826.16	-1239.16	 1422.55
     51.5530	 1824.00	 1826.70	-1277.70	 1422.08
     51.5790	 1856.00	 1827.28	-1246.28	 1421.61
     51.6050	 1869.00	 1827.89	-1233.89	 1421.14
     51.6310	 1830.00	 1828.53	-1273.53	 1420.67
     51.6570	 1818.00	 1829.21	-1286.21	 1420.20
     51.6830	 1856.00	 1829.92	-1248.92	 1419.72
     51.7090	 1872.00	 1830.67	-1233.67	 1419.25
     51.7350	 1879.00	 1831.45	-1227.45	 1418.78
     51.7610	 1829.00	 1832.28	-1278.28	 1418.31
     51.7870	 1844.00	 1833.15	-1264.15	 1417.84
     51.8130	 1804.00	 1834.06	-1305.06	 1417.37
     51.8390	 1794.00	 1835.01	-1316.01	 1416.90
     51.8650	 1828.00	 1836.01	-1283.01	 1416.43
     51.8910	 1852.00	 1837.05	-1260.05	 1415.96
     51.9170	 1879.00	 1838.14	-1234.14	 1415.49
     51.9430	 1877.00	 1839.28	-1237.28	 1415.02
     51.9690	 1834.00	 1840.47	-1281.47	 1414.55
     51.9950	 1802.00	 1841.72	-1314.72	 1414.08
     52.0210	 1804.00	 1843.49	-1314.49	 1414.08
     52.0470	 1902.00	 1845.32	-1218.32	 1414.08
     52.0730	 1904.00	 1847.21	-1218.21	 1414.09
     52.0990	 1891.00	 1849.15	-1233.15	 1414.09
     52.1250	 1878.00	 1851.16	-1248.16	 1414.10
     52.1510	 1767.00	 1853.24	-1361.24	 1414.10
     52.1770	 1819.00	 1855.37	-1311.37	 1414.11
     52.2030	 1804.00	 1857.58	-1328.58	 1414.12
     52.2290	 1902.00	 1859.85	-1232.85	 1414.12
     52.2550	 1921.00	 1862.19	-1216.19	 1414.13
     52.2810	 1797.00	 1864.60	-1342.60	 1414.13
     52.3070	 1786.00	 1867.09	-1356.09	 1414.14
     52.3330	 1854.00	 1869.65	-1290.65	 1414.14
     52.3590	 1857.00	 1872.28	-1290.28	 1414.15
     52.3850	 1870.00	 1875.00	-1280.00	 1414.16
     52.4110	 1825.00	 1877.79	-1327.79	 1414.16
     52.4370	 1829.00	 1880.66	-1326.66	 1414.17
     52.4630	 1882.00	 1883.60	-1276.60	 1414.17
     52.4890	 1825.00	 1886.63	-1336.63	 1414.18
     52.5150	 1860.00	 1889.74	-1304.74	 1414.18
     52.5410	 1913.00	 1892.93	-1254.93	 1414.19
     52.5670	 1877.00	 1896.20	-1294.20	 1414.19
     52.5930	 1866.00	 1899.55	-1308.55	 1414.20
     52.6190	 1834.00	 1902.97	-1343.97	 1414.21
     52.6450	 1875.00	 1906.47	-1306.47	 1414.21
     52.6710	 1929.00	 1910.04	-1256.04	 1414.22
     52.6970	 1924.00	 1913.69	-1264.69	 1414.22
     52.7230	 1820.00	 1917.39	-1372.39	 1414.23
     52.7490	 1851.00	 1921.16	-1345.16	 1414.23
     52.7750	 1886.00	 1924.98	-1313.98	 1414.24
     52.8010	 1897.00	 1928.85	-1306.85	 1414.25
     52.8270	 1924.00	 1932.76	-1283.76	 1414.25
     52.8530	 1898.00	 1936.71	-1313.71	 1414.26
     52.8790	 1934.00	 1940.67	-1281.67	 1414.26
     52.9050	 1905.00	 1944.66	-1314.66	 1414.27
     52.9310	 1889.00	 1948.64	-1334.64	 1414.27
     52.9570	 1916.00	 1952.62	-1311.62	 1414.28
     52.9830	 1891.00	 1956.57	-1340.57	 1414.28
     53.0090	 1917.00	 1960.48	-1318.48	 1414.29
     53.0350	 1909.00	 1964.34	-1330.34	 1414.30
     53.0610	 1956.00	 1968.13	-1287.13	 1414.30
     53.0870	 1924.00	 1971.83	-1322.83	 1414.31
     53.1130	 1933.00	 1975.43	-1317.43	 1414.31
     53.1390	 1973.00	 1978.90	-1280.90	 1414.32
     53.1650	 2016.00	 1982.23	-1241.23	 1414.32
     53.1910	 1972.00	 1985.41	-1288.41	 1414.33
     53.2170	 1988.00	 1988.40	-1275.40	 1414.33
     53.2430	 1989.00	 1991.20	-1277.20	 1414.34
     53.2690	 1946.00	 1993.79	-1322.79	 1414.35
     53.2950	 1948.00	 1996.15	-1323.15	 1414.35
     53.3210	 1960.00	 1998.26	-1313.26	 1414.36
     53.3470	 1991.00	 2000.11	-1284.11	 1414.36
     53.3730	 2016.00	 2001.70	-1260.70	 1414.37
     53.3990	 2071.00	 2003.00	-1207.00	 1414.37
     53.4250	 2086.00	 2004.01	-1193.01	 1414.38
     53.4510	 2002.00	 2004.73	-1277.73	 1414.39
     53.4770	 2016.00	 2005.16	-1264.16	 1414.39
     53.5030	 2017.00	 2005.28	-1263.28	 1414.40
     53.5290	 1981.00	 2005.11	-1299.11	 1414.40
     53.5550	 2001.00	 2004.64	-1278.64	 1414.41
     53.5810	 1968.00	 2003.89	-1310.89	 1414.41
     53.6070	 1999.00	 2002.86	-1278.86	 1414.42
     53.6330	 1987.00	 2001.56	-1289.56	 1414.42
     53.6590	 1928.00	 2000.00	-1347.00	 1414.43
     53.6850	 1953.00	 1998.21	-1320.21	 1414.44
     53.7110	 1960.00	 1996.19	-1311.19	 1414.44
     53.7370	 2009.00	 1993.96	-1259.96	 1414.45
     53.7630	 1971.00	 1991.54	-1295.54	 1414.45
     53.7890	 1922.00	 1988.94	-1341.94	 1414.46
     53.8150	 1909.00	 1986.19	-1352.19	 1414.46
     53.8410	 1899.00	 1983.31	-1359.31	 1414.47
     53.8670	 1903.00	 1980.31	-1352.31	 1414.48
     53.8930	 1951.00	 1977.21	-1301.21	 1414.48
     53.9190	 1974.00	 1974.02	-1275.02	 1414.49
     53.9450	 1967.00	 1970.78	-1278.78	 1414.49
     53.9710	 1951.00	 1967.48	-1291.48	 1414.50
     53.9970	 2000.00	 1964.16	-1239.16	 1414.50
     54.0230	 1934.00	 1960.81	-1301.81	 1414.51
     54.0490	 1925.00	 1957.47	-1307.47	 1414.51
     54.0750	 1988.00	 1954.13	-1241.13	 1414.52
     54.1010	 1938.00	 1950.81	-1287.81	 1414.53
     54.1270	 1908.00	 1947.53	-1314.53	 1414.53
     54.1530	 1965.00	 1944.28	-1254.28	 1414.54
     54.1790	 1952.00	 1941.08	-1264.08	 1414.54
     54.2050	 1869.00	 1937.95	-1343.95	 1414.55
     54.2310	 1909.00	 1934.87	-1300.87	 1414.55
     54.2570	 1889.00	 1931.86	-1317.86	 1414.56
     54.2830	 1894.00	 1928.93	-1309.93	 1414.56
     54.3090	 1942.00	 1926.08	-1259.08	 1414.57
     54.3350	 1843.00	 1923.31	-1355.31	 1414.58
     54.3610	 1875.00	 1920.63	-1320.63	 1414.58
     54.3870	 1920.00	 1918.03	-1273.03	 1414.59
     54.4130	 1862.00	 1915.52	-1328.52	 1414.59
     54.4390	 1801.00	 1913.11	-1387.11	 1414.60
     54.4650	 1902.00	 1910.79	-1283.79	 1414.60
     54.4910	 1899.00	 1908.56	-1284.56	 1414.61
     54.5170	 1912.00	 1906.43	-1269.43	 1414.62
     54.5430	 1881.00	 1904.39	-1298.39	 1414.62
     54.5690	 1859.00	 1902.44	-1318.44	 1414.63
     54.5950	 1825.00	 1900.59	-1350.59	 1414.63
     54.6210	 1960.00	 1898.83	-1213.83	 1414.64
     54.6470	 1908.00	 1897.16	-1264.16	 1414.64
     54.6730	 1845.00	 1895.59	-1325.59	 1414.65
     54.6990	 1797.00	 1894.10	-1372.10	 1414.65
     54.7250	 1910.00	 1892.71	-1257.71	 1414.66
     54.7510	 1877.00	 1891.41	-1289.41	 1414.67
     54.7770	 1906.00	 1890.20	-1259.20	 1414.67
     54.8030	 1839.00	 1889.07	-1325.07	 1414.68
     54.8290	 1875.00	 1888.03	-1288.03	 1414.68
     54.8550	 1918.00	 1887.08	-1244.08	 1414.69
     54.8810	 1834.00	 1886.22	-1327.22	 1414.69
     54.9070	 1879.00	 1885.44	-1281.44	 1414.70
     54.9330	 1847.00	 1884.74	-1312.74	 1414.71
     54.9590	 1856.00	 1884.13	-1303.13	 1414.71
     54.9850	 1897.00	 1883.60	-1261.60	 1414.72
     55.0110	 1896.00	 1883.15	-1262.15	 1414.72
     55.0370	 1884.00	 1882.79	-1273.79	 1414.73
     55.0630	 1870.00	 1882.51	-1287.51	 1414.73
     55.0890	 1902.00	 1882.31	-1255.31	 1414.74
     55.1150	 1890.00	 1882.19	-1267.19	 1414.74
     55.1410	 1845.00	 1882.15	-1312.15	 1414.75
     55.1670	 1858.00	 1882.20	-1299.20	 1414.76
     55.1930	 1838.00	 1882.32	-1319.32	 1414.76
     55.2190	 1889.00	 1882.53	-1268.53	 1414.77
     55.2450	 1858.00	 1882.83	-1299.83	 1414.77
     55.2710	 1925.00	 1883.20	-1233.20	 1414.78
     55.2970	 1889.00	 1883.67	-1269.67	 1414.78
     55.3230	 1819.00	 1884.21	-1340.21	 1414.79
     55.3490	 1869.00	 1884.85	-1290.85	 1414.79
     55.3750	 1894.00	 1885.57	-1266.57	 1414.80
     55.4010	 1847.00	 1886.38	-1314.38	 1414.81
     55.4270	 1824.00	 1887.29	-1338.29	 1414.81
     55.4530	 1831.00	 1888.28	-1332.28	 1414.82
     55.4790	 1827.00	 1889.38	-1337.38	 1414.82
     55.5050	 1827.00	 1890.57	-1338.57	 1414.83
     55.5310	 1882.00	 1891.86	-1284.86	 1414.83
     55.5570	 1867.00	 1893.25	-1301.25	 1414.84
     55.5830	 1824.00	 1894.75	-1345.75	 1414.85
     55.6090	 1830.00	 1896.36	-1341.36	 1414.85
     55.6350	 1869.00	 1898.08	-1304.08	 1414.86
     55.6610	 1914.00	 1899.92	-1260.92	 1414.86
     55.6870	 1918.00	 1901.89	-1258.89	 1414.87
     55.7130	 1920.00	 1903.97	-1258.97	 1414.87
     55.7390	 1901.00	 1906.20	-1280.20	 1414.88
     55.7650	 1865.00	 1908.55	-1318.55	 1414.88
     55.7910	 1858.00	 1911.05	-1328.05	 1414.89
     55.8170	 1937.00	 1913.71	-1251.71	 1414.90
     55.8430	 1962.00	 1916.51	-1229.51	 1414.90
     55.8690	 1937.00	 1919.49	-1257.49	 1414.91
     55.8950	 1888.00	 1922.63	-1309.63	 1414.91
     55.9210	 1863.00	 1925.96	-1337.96	 1414.92
     55.9470	 1865.00	 1929.48	-1339.48	 1414.92
     55.9730	 1915.00	 1933.21	-1293.21	 1414.93
     55.9990	 1946.00	 1937.14	-1266.14	 1414.94
     56.0250	 1896.00	 1941.30	-1320.30	 1414.94
     56.0510	 1899.00	 1945.70	-1321.70	 1414.95
     56.0770	 1959.00	 1950.35	-1266.35	 1414.95
     56.1030	 2017.00	 1955.27	-1213.27	 1414.96
     56.1290	 1991.00	 1960.46	-1244.46	 1414.96
     56.1550	 1957.00	 1965.96	-1283.96	 1414.97
     56.1810	 1997.00	 1971.77	-1249.77	 1414.97
     56.2070	 2008.00	 1977.91	-1244.91	 1414.98
     56.2330	 1981.00	 1984.41	-1278.41	 1414.99
     56.2590	 1968.00	 1991.27	-1298.27	 1414.99
     56.2850	 1991.00	 1998.53	-1282.53	 1415.00
     56.3110	 1993.00	 2006.20	-1288.20	 1415.00
     56.3370	 2005.00	 2014.30	-1284.30	 1415.01
     56.3630	 2051.00	 2022.84	-1246.84	 1415.01
     56.3890	 2085.00	 2031.86	-1221.86	 1415.02
     56.4150	 2048.00	 2041.35	-1268.35	 1415.02
     56.4410	 2041.00	 2051.34	-1285.34	 1415.03
     56.4670	 2022.00	 2061.83	-1314.83	 1415.04
     56.4930	 1992.00	 2072.83	-1355.83	 1415.04
     56.5190	 2075.00	 2084.32	-1284.32	 1415.05
     56.5450	 2108.00	 2096.29	-1263.29	 1415.05
     56.5710	 2126.00	 2108.72	-1257.72	 1415.06
     56.5970	 2132.00	 2121.56	-1264.56	 1415.06
     56.6230	 2086.00	 2134.75	-1323.75	 1415.07
     56.6490	 2167.00	 2148.23	-1256.23	 1415.08
     56.6750	 2148.00	 2161.88	-1288.88	 1415.08
     56.7010	 2209.00	 2175.59	-1241.59	 1415.09
     56.7270	 2206.00	 2189.21	-1258.21	 1415.09
     56.7530	 2221.00	 2202.58	-1256.58	 1415.10
     56.7790	 2220.00	 2215.51	-1270.51	 1415.10
     56.8050	 2173.00	 2227.78	-1329.78	 1415.11
     56.8310	 2230.00	 2239.19	-1284.19	 1415.11
     56.8570	 2275.00	 2249.52	-1249.52	 1415.12
     56.8830	 2256.00	 2258.54	-1277.54	 1415.13
     56.9090	 2274.00	 2266.07	-1267.07	 1415.13
     56.9350	 2314.00	 2271.92	-1232.92	 1415.14
     56.9610	 2227.00	 2275.97	-1323.97	 1415.14
     56.9870	 2265.00	 2278.11	-1288.11	 1415.15
     57.0130	 2317.00	 2278.30	-1236.30	 1415.15
     57.0390	 2264.00	 2276.53	-1287.53	 1415.16
     57.0650	 2258.00	 2272.86	-1289.86	 1415.17
     57.0910	 2243.00	 2267.37	-1299.37	 1415.17
     57.1170	 2243.00	 2260.21	-1292.21	 1415.18
     57.1430	 2277.00	 2251.52	-1249.52	 1415.18
     57.1690	 2283.00	 2241.50	-1233.50	 1415.19
     57.1950	 2226.00	 2230.35	-1279.35	 1415.19
     57.2210	 2186.00	 2218.27	-1307.27	 1415.20
     57.2470	 2242.00	 2205.47	-1238.47	 1415.20
     57.2730	 2213.00	 2192.16	-1254.16	 1415.21
     57.2990	 2282.00	 2178.51	-1171.51	 1415.22
     57.3250	 2257.00	 2164.69	-1182.69	 1415.22
     57.3510	 2195.00	 2150.86	-1230.86	 1415.23
     57.3770	 2216.00	 2137.13	-1196.13	 1415.23
     57.4030	 2212.00	 2123.61	-1186.61	 1415.24
     57.4290	 2116.00	 2110.40	-1269.40	 1415.24
     57.4550	 2137.00	 2097.55	-1235.55	 1415.25
     57.4810	 2149.00	 2085.12	-1211.12	 1415.25
     57.5070	 2117.00	 2073.14	-1231.14	 1415.26
     57.5330	 2156.00	 2061.63	-1180.63	 1415.27
     57.5590	 2076.00	 2050.61	-1249.61	 1415.27
     57.5850	 2010.00	 2040.08	-1305.08	 1415.28
     57.6110	 2061.00	 2030.03	-1244.03	 1415.28
     57.6370	 2059.00	 2020.46	-1236.46	 1415.29
     57.6630	 1984.00	 2011.35	-1302.35	 1415.29
     57.6890	 2007.00	 2002.69	-1270.69	 1415.30
     57.7150	 1993.00	 1994.47	-1276.47	 1415.31
     57.7410	 1977.00	 1986.65	-1284.65	 1415.31
     57.7670	 2017.00	 1979.23	-1237.23	 1415.32
     57.7930	 1962.00	 1972.18	-1285.18	 1415.32
     57.8190	 1955.00	 1965.48	-1285.48	 1415.33
     57.8450	 1940.00	 1959.12	-1294.12	 1415.33
     57.8710	 1970.00	 1953.07	-1258.07	 1415.34
     57.8970	 1970.00	 1947.33	-1252.33	 1415.34
     57.9230	 1904.00	 1941.86	-1312.86	 1415.35
     57.9490	 1852.00	 1936.66	-1359.66	 1415.36
     57.9750	 1871.00	 1931.71	-1335.71	 1415.36
     58.0010	 1872.00	 1927.00	-1330.00	 1415.37
     58.0270	 1893.00	 1922.50	-1304.50	 1415.37
     58.0530	 1908.00	 1918.22	-1285.22	 1415.38
     58.0790	 1869.00	 1914.13	-1320.13	 1415.38
     58.1050	 1865.00	 1910.23	-1320.23	 1415.39
     58.1310	 1912.00	 1906.51	-1269.51	 1415.40
     58.1570	 1809.00	 1902.95	-1368.95	 1415.40
     58.1830	 1820.00	 1899.55	-1354.55	 1415.41
     58.2090	 1877.00	 1896.30	-1294.30	 1415.41
     58.2350	 1838.00	 1893.19	-1330.19	 1415.42
     58.2610	 1888.00	 1890.21	-1277.21	 1415.42
     58.2870	 1827.00	 1887.35	-1335.35	 1415.43
     58.3130	 1859.00	 1884.62	-1300.62	 1415.43
     58.3390	 1875.00	 1882.00	-1282.00	 1415.44
     58.3650	 1875.00	 1879.49	-1279.49	 1415.45
     58.3910	 1850.00	 1877.08	-1302.08	 1415.45
     58.4170	 1773.00	 1874.78	-1376.78	 1415.46
     58.4430	 1889.00	 1872.56	-1258.56	 1415.46
     58.4690	 1870.00	 1870.43	-1275.43	 1415.47
     58.4950	 1818.00	 1868.39	-1325.39	 1415.47
     58.5210	 1862.00	 1866.43	-1279.43	 1415.48
     58.5470	 1894.00	 1864.55	-1245.55	 1415.48
     58.5730	 1845.00	 1862.74	-1292.74	 1415.49
     58.5990	 1818.00	 1861.00	-1318.00	 1415.50
     58.6250	 1824.00	 1859.33	-1310.33	 1415.50
     58.6510	 1805.00	 1857.73	-1327.73	 1415.51
     58.6770	 1819.00	 1856.19	-1312.19	 1415.51
     58.7030	 1817.00	 1854.72	-1312.72	 1415.52
     58.7290	 1813.00	 1853.30	-1315.30	 1415.53
     58.7550	 1823.00	 1851.98	-1303.98	 1415.58
     58.7810	 1790.00	 1850.71	-1335.71	 1415.62
     58.8070	 1818.00	 1849.50	-1306.50	 1415.67
     58.8330	 1906.00	 1848.34	-1217.34	 1415.72
     58.8590	 1914.00	 1847.22	-1208.22	 1415.76
     58.8850	 1878.00	 1846.16	-1243.16	 1415.81
     58.9110	 1857.00	 1845.14	-1263.14	 1415.86
     58.9370	 1844.00	 1844.16	-1275.16	 1415.91
     58.9630	 1825.00	 1843.23	-1293.23	 1415.95
     58.9890	 1783.00	 1842.34	-1334.34	 1416.00
     59.0150	 1807.00	 1841.49	-1309.49	 1416.05
     59.0410	 1857.00	 1840.68	-1258.68	 1416.09
     59.0670	 1834.00	 1839.91	-1280.91	 1416.14
     59.0930	 1850.00	 1839.17	-1264.17	 1416.19
     59.1190	 1821.00	 1838.48	-1292.48	 1416.24
     59.1450	 1846.00	 1837.82	-1266.82	 1416.28
     59.1710	 1874.00	 1837.20	-1238.20	 1416.33
     59.1970	 1881.00	 1836.61	-1230.61	 1416.38
     59.2230	 1849.00	 1836.05	-1262.05	 1416.42
     59.2490	 1880.00	 1835.53	-1230.53	 1416.47
     59.2750	 1867.00	 1835.04	-1243.04	 1416.52
     59.3010	 1830.00	 1834.58	-1279.58	 1416.57
     59.3270	 1862.00	 1834.15	-1247.15	 1416.61
     59.3530	 1891.00	 1833.76	-1217.76	 1416.66
     59.3790	 1799.00	 1833.39	-1309.39	 1416.71
     59.4050	 1846.00	 1833.06	-1262.06	 1416.75
     59.4310	 1866.00	 1832.75	-1241.75	 1416.80
     59.4570	 1829.00	 1832.48	-1278.48	 1416.85
     59.4830	 1867.00	 1832.23	-1240.23	 1416.90
     59.5090	 1944.00	 1832.02	-1163.02	 1416.94
     59.5350	 1930.00	 1831.83	-1176.83	 1416.99
     59.5610	 1915.00	 1831.67	-1191.67	 1417.04
     59.5870	 1836.00	 1831.54	-1270.54	 1417.08
     59.6130	 1901.00	 1831.44	-1205.44	 1417.13
     59.6390	 1850.00	 1831.36	-1256.36	 1417.18
     59.6650	 1836.00	 1831.32	-1270.32	 1417.23
     59.6910	 1829.00	 1831.30	-1277.30	 1417.27
     59.7170	 1885.00	 1831.31	-1221.31	 1417.32
     59.7430	 1854.00	 1831.36	-1252.36	 1417.37
     59.7690	 1779.00	 1831.42	-1327.42	 1417.41
     59.7950	 1862.00	 1831.52	-1244.52	 1417.46
     59.8210	 1857.00	 1831.65	-1249.65	 1417.51
     59.8470	 1893.00	 1831.81	-1213.81	 1417.56
     59.8730	 1852.00	 1831.99	-1254.99	 1417.60
     59.8990	 1885.00	 1832.21	-1222.21	 1417.65
     59.9250	 1846.00	 1832.45	-1261.45	 1417.70
     59.9510	 1813.00	 1832.73	-1294.73	 1417.74
     59.9770	 1815.00	 1833.04	-1293.04	 1417.79
     60.0030	 1886.00	 1833.38	-1222.38	 1417.84
     60.0290	 1786.00	 1833.75	-1322.75	 1417.89
     60.0550	 1807.00	 1834.16	-1302.16	 1417.93
     60.0810	 1907.00	 1834.59	-1202.59	 1417.98
     60.1070	 1917.00	 1835.07	-1193.07	 1418.03
     60.1330	 1922.00	 1834.57	-1187.57	 1418.07
     60.1590	 1909.00	 1835.11	-1201.11	 1418.12
     60.1850	 1802.00	 1835.69	-1308.69	 1418.17
     60.2110	 1831.00	 1836.31	-1280.31	 1418.22
     60.2370	 1782.00	 1836.97	-1329.97	 1418.26
     60.2630	 1820.00	 1837.66	-1292.66	 1418.31
     60.2890	 1830.00	 1837.90	-1282.90	 1418.36
     60.3150	 1899.00	 1838.68	-1214.68	 1418.41
     60.3410	 1891.00	 1839.50	-1223.50	 1418.45
     60.3670	 1819.00	 1840.37	-1296.37	 1418.50
     60.3930	 1829.00	 1841.28	-1287.28	 1418.55
     60.4190	 1850.00	 1842.24	-1267.24	 1418.59
     60.4450	 1899.00	 1843.25	-1219.25	 1418.64
     60.4710	 1818.00	 1844.31	-1301.31	 1418.69
     60.4970	 1846.00	 1845.42	-1274.42	 1418.74
     60.5230	 1877.00	 1846.58	-1244.58	 1418.78
     60.5490	 1847.00	 1847.81	-1275.81	 1418.83
     60.5750	 1830.00	 1849.09	-1294.09	 1418.88
     60.6010	 1921.00	 1850.43	-1204.43	 1418.92
     60.6270	 1926.00	 1851.84	-1200.84	 1418.97
     60.6530	 1821.00	 1853.31	-1307.31	 1419.02
     60.6790	 1868.00	 1854.85	-1261.85	 1419.07
     60.7050	 1892.00	 1856.46	-1239.46	 1419.11
     60.7310	 1903.00	 1858.15	-1230.15	 1419.16
     60.7570	 1847.00	 1859.92	-1287.92	 1419.21
     60.7830	 1862.00	 1861.77	-1274.77	 1419.25
     60.8090	 1869.00	 1863.71	-1269.71	 1419.30
     60.8350	 1883.00	 1865.74	-1257.74	 1419.35
     60.8610	 1843.00	 1867.86	-1299.86	 1419.40
     60.8870	 1793.00	 1870.08	-1352.08	 1419.44
     60.9130	 1825.00	 1872.41	-1322.41	 1419.49
     60.9390	 1774.00	 1874.85	-1375.85	 1419.54
     60.9650	 1862.00	 1877.40	-1290.40	 1419.58
     60.9910	 1892.00	 1879.70	-1262.70	 1419.63
     61.0170	 1878.00	 1882.51	-1279.51	 1419.68
     61.0430	 1844.00	 1885.45	-1316.45	 1419.73
     61.0690	 1860.00	 1888.53	-1303.53	 1419.77
     61.0950	 1889.00	 1891.77	-1277.77	 1419.82
     61.1210	 1941.00	 1895.17	-1229.17	 1419.87
     61.1470	 1979.00	 1898.55	-1194.55	 1419.91
     61.1730	 1945.00	 1902.30	-1232.30	 1419.96
     61.1990	 1903.00	 1906.24	-1278.24	 1420.01
     61.2250	 1848.00	 1910.38	-1337.38	 1420.06
     61.2510	 1858.00	 1914.73	-1331.73	 1420.10
     61.2770	 1891.00	 1919.31	-1303.31	 1420.15
     61.3030	 1900.00	 1924.13	-1299.13	 1420.20
     61.3290	 1900.00	 1929.22	-1304.22	 1420.24
     61.3550	 1843.00	 1934.57	-1366.57	 1420.29
     61.3810	 1871.00	 1940.22	-1344.22	 1420.34
     61.4070	 1923.00	 1946.17	-1298.17	 1420.39
     61.4330	 1898.00	 1952.46	-1329.46	 1420.43
     61.4590	 1934.00	 1959.10	-1300.10	 1420.48
     61.4850	 1969.00	 1966.12	-1272.12	 1420.53
     61.5110	 1914.00	 1973.54	-1334.54	 1420.57
     61.5370	 1912.00	 1981.39	-1344.39	 1420.62
     61.5630	 1960.00	 1989.70	-1304.70	 1420.67
     61.5890	 1913.00	 1998.50	-1360.50	 1420.72
     61.6150	 1923.00	 2007.83	-1359.83	 1420.76
     61.6410	 1988.00	 2017.72	-1304.72	 1420.81
     61.6670	 2019.00	 2028.21	-1284.21	 1420.86
     61.6930	 1966.00	 2039.33	-1348.33	 1420.90
     61.7190	 1909.00	 2051.15	-1417.15	 1420.95
     61.7450	 1948.00	 2063.69	-1390.69	 1421.00
     61.7710	 2033.00	 2077.01	-1319.01	 1421.05
     61.7970	 2088.00	 2091.17	-1278.17	 1421.09
     61.8230	 2115.00	 2106.21	-1266.21	 1421.14
     61.8490	 2059.00	 2122.18	-1338.18	 1421.19
     61.8750	 2106.00	 2139.16	-1308.16	 1421.23
     61.9010	 2157.00	 2157.19	-1275.19	 1421.28
     61.9270	 2206.00	 2176.33	-1245.33	 1421.33
     61.9530	 2235.00	 2196.63	-1236.63	 1421.38
     61.9790	 2204.00	 2218.16	-1289.16	 1421.42
     62.0050	 2154.00	 2240.95	-1361.95	 1421.47
     62.0310	 2156.00	 2265.05	-1384.05	 1421.52
     62.0570	 2232.00	 2290.48	-1333.48	 1421.56
     62.0830	 2305.00	 2317.26	-1287.26	 1421.61
     62.1090	 2368.00	 2345.38	-1252.38	 1421.66
     62.1350	 2416.00	 2374.82	-1233.82	 1421.71
     62.1610	 2435.00	 2405.50	-1245.50	 1421.75
     62.1870	 2518.00	 2437.35	-1194.35	 1421.80
     62.2130	 2631.00	 2470.20	-1114.20	 1421.85
     62.2390	 2595.00	 2503.88	-1183.88	 1421.89
     62.2650	 2532.00	 2538.13	-1281.13	 1421.94
     62.2910	 2526.00	 2572.65	-1321.65	 1421.99
     62.3170	 2693.00	 2607.07	-1189.07	 1422.04
     62.3430	 2738.00	 2640.96	-1177.96	 1422.08
     62.3690	 2711.00	 2673.82	-1237.82	 1422.13
     62.3950	 2715.00	 2705.15	-1265.15	 1422.18
     62.4210	 2812.00	 2734.37	-1197.37	 1422.22
     62.4470	 2774.00	 2760.92	-1261.92	 1422.27
     62.4730	 2795.00	 2784.25	-1264.25	 1422.32
     62.4990	 2855.00	 2803.86	-1223.86	 1422.37
     62.5250	 2900.00	 2819.29	-1194.29	 1422.41
     62.5510	 2916.00	 2830.21	-1189.21	 1422.46
     62.5770	 2912.00	 2836.36	-1199.36	 1422.51
     62.6030	 2836.00	 2837.63	-1276.63	 1422.55
     62.6290	 2851.00	 2834.02	-1258.02	 1422.60
     62.6550	 2923.00	 2825.64	-1177.64	 1422.65
     62.6810	 2907.00	 2812.72	-1180.72	 1422.70
     62.7070	 2836.00	 2795.58	-1234.58	 1422.74
     62.7330	 2860.00	 2774.63	-1189.63	 1422.79
     62.7590	 2799.00	 2750.33	-1226.33	 1422.84
     62.7850	 2958.00	 2723.18	-1040.18	 1422.88
     62.8110	 2791.00	 2693.69	-1177.69	 1422.93
     62.8370	 2761.00	 2662.38	-1176.38	 1422.98
     62.8630	 2677.00	 2629.76	-1227.76	 1423.03
     62.8890	 2683.00	 2596.29	-1188.29	 1423.07
     62.9150	 2633.00	 2562.42	-1204.42	 1423.12
     62.9410	 2638.00	 2528.51	-1165.51	 1423.17
     62.9670	 2531.00	 2494.92	-1238.92	 1423.21
     62.9930	 2544.00	 2461.91	-1192.91	 1423.26
     63.0190	 2474.00	 2429.71	-1230.71	 1423.31
     63.0450	 2467.00	 2398.49	-1206.49	 1423.36
     63.0710	 2449.00	 2368.40	-1194.40	 1423.40
     63.0970	 2394.00	 2339.52	-1220.52	 1423.45
     63.1230	 2373.00	 2311.92	-1213.92	 1423.50
     63.1490	 2316.00	 2285.61	-1244.61	 1423.54
     63.1750	 2315.00	 2260.62	-1220.62	 1423.59
     63.2010	 2273.00	 2236.92	-1238.92	 1423.64
     63.2270	 2323.00	 2214.50	-1166.50	 1423.69
     63.2530	 2284.00	 2193.31	-1184.31	 1423.73
     63.2790	 2251.00	 2173.32	-1197.32	 1423.78
     63.3050	 2162.00	 2154.46	-1267.46	 1423.83
     63.3310	 2134.00	 2136.70	-1277.70	 1423.87
     63.3570	 2084.00	 2119.97	-1310.97	 1423.92
     63.3830	 2055.00	 2104.22	-1324.22	 1423.97
     63.4090	 2054.00	 2089.39	-1310.39	 1424.02
     63.4350	 2021.00	 2075.44	-1329.44	 1424.06
     63.4610	 2031.00	 2062.30	-1306.30	 1424.11
     63.4870	 1987.00	 2049.93	-1337.93	 1424.16
     63.5130	 1952.00	 2038.28	-1361.28	 1424.20
     63.5390	 1975.00	 2027.31	-1327.31	 1424.25
     63.5650	 1951.00	 2016.97	-1340.97	 1424.30
     63.5910	 1937.00	 2007.22	-1345.22	 1424.35
     63.6170	 1915.00	 1998.03	-1358.03	 1424.39
     63.6430	 1893.00	 1989.36	-1371.36	 1424.44
     63.6690	 1906.00	 1981.17	-1350.17	 1424.49
     63.6950	 1923.00	 1973.44	-1325.44	 1424.53
     63.7210	 1911.00	 1966.14	-1330.14	 1424.58
     63.7470	 1886.00	 1959.23	-1348.23	 1424.63
     63.7730	 1890.00	 1952.70	-1337.70	 1424.68
     63.7990	 1849.00	 1946.52	-1372.52	 1424.72
     63.8250	 1867.00	 1940.67	-1348.67	 1424.77
     63.8510	 1893.00	 1935.13	-1317.13	 1424.82
     63.8770	 1899.00	 1929.88	-1305.88	 1424.86
     63.9030	 1911.00	 1924.91	-1288.91	 1424.91
     63.9290	 1919.00	 1920.19	-1276.19	 1424.96
     63.9550	 1904.00	 1915.71	-1286.71	 1425.01
     63.9810	 1860.00	 1911.46	-1326.46	 1425.05
     64.0070	 1877.00	 1907.42	-1305.42	 1425.10
     64.0330	 1878.00	 1903.59	-1300.59	 1425.15
     64.0590	 1864.00	 1899.95	-1310.95	 1425.19
     64.0850	 1840.00	 1896.50	-1331.50	 1425.24
     64.1110	 1807.00	 1893.21	-1361.21	 1425.29
     64.1370	 1864.00	 1890.09	-1301.09	 1425.34
     64.1630	 1844.00	 1887.12	-1318.12	 1425.38
     64.1890	 1815.00	 1884.29	-1344.29	 1425.43
     64.2150	 1862.00	 1881.61	-1294.61	 1425.48
     64.2410	 1869.00	 1879.06	-1285.06	 1425.53
     64.2670	 1875.00	 1876.64	-1276.64	 1425.57
     64.2930	 1844.00	 1874.33	-1305.33	 1425.62
     64.3190	 1852.00	 1872.15	-1295.15	 1425.67
     64.3450	 1850.00	 1870.07	-1295.07	 1425.71
     64.3710	 1792.00	 1868.10	-1351.10	 1425.76
     64.3970	 1769.00	 1866.23	-1372.23	 1425.81
     64.4230	 1797.00	 1864.46	-1342.46	 1425.86
     64.4490	 1817.00	 1862.78	-1320.78	 1425.90
     64.4750	 1843.00	 1861.19	-1293.19	 1425.95
     64.5010	 1919.00	 1859.69	-1215.69	 1426.00
     64.5270	 1899.00	 1858.28	-1234.28	 1426.04
     64.5530	 1834.00	 1856.94	-1297.94	 1426.09
     64.5790	 1783.00	 1855.69	-1347.69	 1426.14
     64.6050	 1802.00	 1854.52	-1327.52	 1426.19
     64.6310	 1845.00	 1853.42	-1283.42	 1426.23
     64.6570	 1849.00	 1852.39	-1278.39	 1426.28
     64.6830	 1838.00	 1851.44	-1288.44	 1426.33
     64.7090	 1797.00	 1850.55	-1328.55	 1426.37
     64.7350	 1800.00	 1849.74	-1324.74	 1426.42
     64.7610	 1827.00	 1848.99	-1296.99	 1426.47
     64.7870	 1797.00	 1848.32	-1326.32	 1426.52
     64.8130	 1851.00	 1847.71	-1271.71	 1426.56
     64.8390	 1818.00	 1846.48	-1303.48	 1425.93
     64.8650	 1787.00	 1844.88	-1332.88	 1424.85
     64.8910	 1833.00	 1843.34	-1285.34	 1423.77
     64.9170	 1828.00	 1841.86	-1288.86	 1422.69
     64.9430	 1851.00	 1840.45	-1264.45	 1421.61
     64.9690	 1834.00	 1839.10	-1280.10	 1420.54
     64.9950	 1852.00	 1837.82	-1260.82	 1419.46
     65.0210	 1825.00	 1836.60	-1286.60	 1418.38
     65.0470	 1836.00	 1835.44	-1274.44	 1417.30
     65.0730	 1892.00	 1834.35	-1217.35	 1416.22
     65.0990	 1887.00	 1833.32	-1221.32	 1415.14
     65.1250	 1772.00	 1832.36	-1335.36	 1414.06
     65.1510	 1863.00	 1831.45	-1243.45	 1412.98
     65.1770	 1831.00	 1830.61	-1274.61	 1411.90
     65.2030	 1817.00	 1829.82	-1287.82	 1410.82
     65.2290	 1751.00	 1829.10	-1353.10	 1409.74
     65.2550	 1817.00	 1828.43	-1286.43	 1408.66
     65.2810	 1801.00	 1827.81	-1301.81	 1407.58
     65.3070	 1816.00	 1827.25	-1286.25	 1406.50
     65.3330	 1836.00	 1826.73	-1265.73	 1405.42
     65.3590	 1806.00	 1826.25	-1295.25	 1404.34
     65.3850	 1846.00	 1825.82	-1254.82	 1403.26
     65.4110	 1861.00	 1825.41	-1239.41	 1402.18
     65.4370	 1817.00	 1825.03	-1283.03	 1401.10
     65.4630	 1861.00	 1824.66	-1238.66	 1400.02
     65.4890	 1826.00	 1824.30	-1273.30	 1398.94
     65.5150	 1801.00	 1823.94	-1297.94	 1397.86
     65.5410	 1776.00	 1823.57	-1322.57	 1396.78
     65.5670	 1736.00	 1823.18	-1362.18	 1395.70
     65.5930	 1828.00	 1822.75	-1269.75	 1394.62
     65.6190	 1809.00	 1822.27	-1288.27	 1393.54
     65.6450	 1882.00	 1821.74	-1214.74	 1392.46
     65.6710	 1882.00	 1821.14	-1214.14	 1391.39
     65.6970	 1883.00	 1820.47	-1212.47	 1390.31
     65.7230	 1844.00	 1819.71	-1250.71	 1389.23
     65.7490	 1829.00	 1818.85	-1264.85	 1388.15
     65.7750	 1837.00	 1817.90	-1255.90	 1387.07
     65.8010	 1874.00	 1816.84	-1217.84	 1385.99
     65.8270	 1821.00	 1815.68	-1269.68	 1384.91
     65.8530	 1745.00	 1814.41	-1344.41	 1383.83
     65.8790	 1795.00	 1813.04	-1293.04	 1382.75
     65.9050	 1826.00	 1811.56	-1260.56	 1381.67
     65.9310	 1839.00	 1809.99	-1245.99	 1380.59
     65.9570	 1816.00	 1808.33	-1267.33	 1379.51
     65.9830	 1786.00	 1806.58	-1295.58	 1378.43
     66.0090	 1822.00	 1804.77	-1257.77	 1377.35
     66.0350	 1828.00	 1802.88	-1249.88	 1376.27
     66.0610	 1817.00	 1800.94	-1258.94	 1375.19
     66.0870	 1817.00	 1798.96	-1256.96	 1374.11
     66.1130	 1776.00	 1796.94	-1295.94	 1373.03
     66.1390	 1837.00	 1794.90	-1232.90	 1371.95
     66.1650	 1829.00	 1792.83	-1238.83	 1370.87
     66.1910	 1798.00	 1790.76	-1267.76	 1369.79
     66.2170	 1802.00	 1788.68	-1261.68	 1368.71
     66.2430	 1732.00	 1786.61	-1329.61	 1367.63
     66.2690	 1764.00	 1784.55	-1295.55	 1366.55
     66.2950	 1777.00	 1782.51	-1280.51	 1365.47
     66.3210	 1787.00	 1780.48	-1268.48	 1364.39
     66.3470	 1782.00	 1778.47	-1271.47	 1363.31
     66.3730	 1778.00	 1776.49	-1273.49	 1362.23
     66.3990	 1821.00	 1774.53	-1228.53	 1361.16
     66.4250	 1844.00	 1772.60	-1203.60	 1360.08
     66.4510	 1792.00	 1770.70	-1253.70	 1359.00
     66.4770	 1770.00	 1768.82	-1273.82	 1357.92
     66.5030	 1783.00	 1766.96	-1258.96	 1356.84
     66.5290	 1796.00	 1765.14	-1244.14	 1355.76
     66.5550	 1773.00	 1763.33	-1265.33	 1354.68
     66.5810	 1755.00	 1761.55	-1281.55	 1353.60
     66.6070	 1766.00	 1759.78	-1268.78	 1352.52
     66.6330	 1749.00	 1758.03	-1284.03	 1351.44
     66.6590	 1765.00	 1756.30	-1266.30	 1350.36
     66.6850	 1797.00	 1754.58	-1232.58	 1349.28
     66.7110	 1779.00	 1752.87	-1248.87	 1348.20
     66.7370	 1757.00	 1751.18	-1269.18	 1347.12
     66.7630	 1715.00	 1749.49	-1309.49	 1346.04
     66.7890	 1671.00	 1747.80	-1351.80	 1344.96
     66.8150	 1702.00	 1746.13	-1319.13	 1343.88
     66.8410	 1733.00	 1744.45	-1286.45	 1342.80
     66.8670	 1756.00	 1742.77	-1261.77	 1341.72
     66.8930	 1740.00	 1741.10	-1276.10	 1340.64
     66.9190	 1713.00	 1739.43	-1301.43	 1339.56
     66.9450	 1704.00	 1737.75	-1308.75	 1338.48
     66.9710	 1675.00	 1736.07	-1336.07	 1337.40
     66.9970	 1670.00	 1734.39	-1339.39	 1336.32
     67.0230	 1690.00	 1732.71	-1317.71	 1335.24
     67.0490	 1710.00	 1731.02	-1296.02	 1334.16
     67.0750	 1692.00	 1729.33	-1312.33	 1333.08
     67.1010	 1759.00	 1727.64	-1243.64	 1332.01
     67.1270	 1763.00	 1725.94	-1237.94	 1330.93
     67.1530	 1693.00	 1724.24	-1306.24	 1329.85
     67.1790	 1724.00	 1722.54	-1273.54	 1328.77
     67.2050	 1791.00	 1720.84	-1204.84	 1327.69
     67.2310	 1764.00	 1719.14	-1230.14	 1326.61
     67.2570	 1744.00	 1717.43	-1248.43	 1325.53
     67.2830	 1785.00	 1715.73	-1205.73	 1324.45
     67.3090	 1667.00	 1714.03	-1322.03	 1323.37
     67.3350	 1660.00	 1712.33	-1327.33	 1322.29
     67.3610	 1706.00	 1710.64	-1279.64	 1321.21
     67.3870	 1680.00	 1708.94	-1303.94	 1320.13
     67.4130	 1683.00	 1707.26	-1299.26	 1319.05
     67.4390	 1704.00	 1705.57	-1276.57	 1317.97
     67.4650	 1717.00	 1703.90	-1261.90	 1316.89
     67.4910	 1738.00	 1702.23	-1239.23	 1315.81
     67.5170	 1694.00	 1700.56	-1281.56	 1314.73
     67.5430	 1776.00	 1698.91	-1197.91	 1313.65
     67.5690	 1613.00	 1697.26	-1359.26	 1312.57
     67.5950	 1624.00	 1695.62	-1346.62	 1311.49
     67.6210	 1590.00	 1694.00	-1379.00	 1310.41
     67.6470	 1665.00	 1692.38	-1302.38	 1309.33
     67.6730	 1641.00	 1690.77	-1324.77	 1308.25
     67.6990	 1711.00	 1689.17	-1253.17	 1307.17
     67.7250	 1650.00	 1687.58	-1312.58	 1306.09
     67.7510	 1699.00	 1686.01	-1262.01	 1305.01
     67.7770	 1707.00	 1684.44	-1252.44	 1303.93
     67.8030	 1695.00	 1682.89	-1262.89	 1302.85
     67.8290	 1614.00	 1681.35	-1342.35	 1301.78
     67.8550	 1686.00	 1679.82	-1268.82	 1300.70
     67.8810	 1633.00	 1678.30	-1320.30	 1299.62
     67.9070	 1658.00	 1676.79	-1293.79	 1298.54
     67.9330	 1783.00	 1675.30	-1167.30	 1297.46
     67.9590	 1768.00	 1673.81	-1180.81	 1296.38
     67.9850	 1774.00	 1672.34	-1173.34	 1295.30
     68.0110	 1676.00	 1670.88	-1269.88	 1294.22
     68.0370	 1677.00	 1669.44	-1267.44	 1293.14
     68.0630	 1639.00	 1668.00	-1304.00	 1292.06
     68.0890	 1643.00	 1666.58	-1298.58	 1290.98
     68.1150	 1666.00	 1665.16	-1274.16	 1289.90
     68.1410	 1629.00	 1663.76	-1309.76	 1288.82
     68.1670	 1636.00	 1662.37	-1301.37	 1287.74
     68.1930	 1708.00	 1660.99	-1227.99	 1286.66
     68.2190	 1690.00	 1659.63	-1244.63	 1285.58
     68.2450	 1643.00	 1658.27	-1290.27	 1284.50
     68.2710	 1623.00	 1656.92	-1308.92	 1283.42
     68.2970	 1651.00	 1655.59	-1279.59	 1282.34
     68.3230	 1670.00	 1654.26	-1259.26	 1281.26
     68.3490	 1600.00	 1652.95	-1327.95	 1280.18
     68.3750	 1707.00	 1651.64	-1219.64	 1279.10
     68.4010	 1744.00	 1650.35	-1181.35	 1278.02
     68.4270	 1684.00	 1649.06	-1240.06	 1276.94
     68.4530	 1673.00	 1647.79	-1249.79	 1275.86
     68.4790	 1677.00	 1646.52	-1244.52	 1274.78
     68.5050	 1619.00	 1645.27	-1301.27	 1273.70
     68.5310	 1670.00	 1644.02	-1249.02	 1272.63
     68.5570	 1754.00	 1642.79	-1163.79	 1271.55
     68.5830	 1633.00	 1641.56	-1283.56	 1270.47
     68.6090	 1563.00	 1640.34	-1352.34	 1269.39
     68.6350	 1620.00	 1639.14	-1294.14	 1268.31
     68.6610	 1671.00	 1637.94	-1241.94	 1267.23
     68.6870	 1653.00	 1636.75	-1258.75	 1266.15
     68.7130	 1669.00	 1635.56	-1241.56	 1265.07
     68.7390	 1605.00	 1634.39	-1304.39	 1263.99
     68.7650	 1631.00	 1633.23	-1277.23	 1262.91
     68.7910	 1622.00	 1632.07	-1285.07	 1261.83
     68.8170	 1584.00	 1630.93	-1321.93	 1260.75
     68.8430	 1643.00	 1629.79	-1261.79	 1259.67
     68.8690	 1660.00	 1628.66	-1243.66	 1258.59
     68.8950	 1611.00	 1627.55	-1291.55	 1257.51
     68.9210	 1604.00	 1626.44	-1297.44	 1256.43
     68.9470	 1616.00	 1625.33	-1284.33	 1255.35
     68.9730	 1630.00	 1624.24	-1269.24	 1254.27
     68.9990	 1650.00	 1623.16	-1248.16	 1253.19
     69.0250	 1640.00	 1622.08	-1257.08	 1252.11
     69.0510	 1621.00	 1621.02	-1275.02	 1251.03
     69.0770	 1644.00	 1619.96	-1250.96	 1249.95
     69.1030	 1621.00	 1618.91	-1272.91	 1248.87
     69.1290	 1583.00	 1617.88	-1309.88	 1247.79
     69.1550	 1587.00	 1616.85	-1304.85	 1246.71
     69.1810	 1607.00	 1615.83	-1283.83	 1245.63
     69.2070	 1620.00	 1614.82	-1269.82	 1244.55
     69.2330	 1630.00	 1613.82	-1258.82	 1243.47
     69.2590	 1625.00	 1612.83	-1262.83	 1242.40
     69.2850	 1634.00	 1611.85	-1252.85	 1241.32
     69.3110	 1661.00	 1610.89	-1224.89	 1240.24
     69.3370	 1643.00	 1609.93	-1241.93	 1239.16
     69.3630	 1633.00	 1608.99	-1250.99	 1238.08
     69.3890	 1589.00	 1608.05	-1294.05	 1237.00
     69.4150	 1561.00	 1607.13	-1321.13	 1235.92
     69.4410	 1616.00	 1606.22	-1265.22	 1234.84
     69.4670	 1642.00	 1605.32	-1238.32	 1233.76
     69.4930	 1637.00	 1604.44	-1242.44	 1232.68
     69.5190	 1585.00	 1603.57	-1293.57	 1231.60
     69.5450	 1574.00	 1602.71	-1303.71	 1230.52
     69.5710	 1579.00	 1601.87	-1297.87	 1229.44
     69.5970	 1600.00	 1601.05	-1276.05	 1228.36
     69.6230	 1614.00	 1600.23	-1261.23	 1227.28
     69.6490	 1648.00	 1599.44	-1226.44	 1226.20
     69.6750	 1645.00	 1598.66	-1228.66	 1225.12
     69.7010	 1641.00	 1597.90	-1231.90	 1224.04
     69.7270	 1631.00	 1597.16	-1241.16	 1222.96
     69.7530	 1627.00	 1596.44	-1244.44	 1221.88
     69.7790	 1602.00	 1595.74	-1268.74	 1220.80
     69.8050	 1600.00	 1595.07	-1270.07	 1219.72
     69.8310	 1559.00	 1594.41	-1310.41	 1218.64
     69.8570	 1620.00	 1593.78	-1248.78	 1217.56
     69.8830	 1625.00	 1593.17	-1243.17	 1216.48
     69.9090	 1610.00	 1592.60	-1257.60	 1215.40
     69.9350	 1661.00	 1592.05	-1206.05	 1214.32
     69.9610	 1680.00	 1591.52	-1186.52	 1213.25
     69.9870	 1607.00	 1591.04	-1259.04	 1212.17
     70.0130	 1647.00	 1590.58	-1218.58	 1211.09
     70.0390	 1607.00	 1590.16	-1258.16	 1210.01
     70.0650	 1595.00	 1589.78	-1269.78	 1208.93
     70.0910	 1583.00	 1589.44	-1281.44	 1207.85
     70.1170	 1599.00	 1589.14	-1265.14	 1206.77
     70.1430	 1564.00	 1588.88	-1299.88	 1205.69
     70.1690	 1629.00	 1588.68	-1234.68	 1204.61
     70.1950	 1599.00	 1588.52	-1264.52	 1203.53
     70.2210	 1657.00	 1588.41	-1206.41	 1202.45
     70.2470	 1656.00	 1588.37	-1207.37	 1201.37
     70.2730	 1610.00	 1588.38	-1253.38	 1200.29
     70.2990	 1614.00	 1588.45	-1249.45	 1199.21
     70.3250	 1552.00	 1588.59	-1311.59	 1198.13
     70.3510	 1608.00	 1588.80	-1255.80	 1197.05
     70.3770	 1574.00	 1589.07	-1290.07	 1195.97
     70.4030	 1614.00	 1589.76	-1250.76	 1195.22
     70.4290	 1550.00	 1590.79	-1315.79	 1194.75
     70.4550	 1667.00	 1591.89	-1199.89	 1194.27
     70.4810	 1522.00	 1593.08	-1346.08	 1193.80
     70.5070	 1711.00	 1594.34	-1158.34	 1193.32
     70.5330	 1645.00	 1595.68	-1225.68	 1192.85
     70.5590	 1648.00	 1597.10	-1224.10	 1192.37
     70.5850	 1624.00	 1598.58	-1249.58	 1191.89
     70.6110	 1594.00	 1600.12	-1281.12	 1191.42
     70.6370	 1601.00	 1601.72	-1275.72	 1190.94
     70.6630	 1593.00	 1603.35	-1285.35	 1190.47
     70.6890	 1658.00	 1605.01	-1222.01	 1189.99
     70.7150	 1605.00	 1606.68	-1276.68	 1189.52
     70.7410	 1601.00	 1608.34	-1282.34	 1189.04
     70.7670	 1594.00	 1609.95	-1290.95	 1188.57
     70.7930	 1597.00	 1611.50	-1289.50	 1188.09
     70.8190	 1577.00	 1612.95	-1310.95	 1187.61
     70.8450	 1540.00	 1614.29	-1349.29	 1187.14
     70.8710	 1598.00	 1615.47	-1292.47	 1186.66
     70.8970	 1575.00	 1616.47	-1316.47	 1186.19
     70.9230	 1654.00	 1617.28	-1238.28	 1185.71
     70.9490	 1595.00	 1617.86	-1297.86	 1185.24
     70.9750	 1592.00	 1618.21	-1301.21	 1184.76
     71.0010	 1615.00	 1618.32	-1278.32	 1184.29
     71.0270	 1570.00	 1618.18	-1323.18	 1183.81
     71.0530	 1658.00	 1617.79	-1234.79	 1183.33
     71.0790	 1579.00	 1617.17	-1313.17	 1182.86
     71.1050	 1637.00	 1616.33	-1254.33	 1182.38
     71.1310	 1547.00	 1615.28	-1343.28	 1181.91
     71.1570	 1580.00	 1614.04	-1309.04	 1181.43
     71.1830	 1589.00	 1612.64	-1298.64	 1180.96
     71.2090	 1579.00	 1611.09	-1307.09	 1180.48
     71.2350	 1634.00	 1609.43	-1250.43	 1180.01
     71.2610	 1593.00	 1607.69	-1289.69	 1179.53
     71.2870	 1616.00	 1605.87	-1264.87	 1179.05
     71.3130	 1627.00	 1604.02	-1252.02	 1178.58
     71.3390	 1634.00	 1602.15	-1243.15	 1178.10
     71.3650	 1634.00	 1600.28	-1241.28	 1177.63
     71.3910	 1562.00	 1598.43	-1311.43	 1177.15
     71.4170	 1567.00	 1596.62	-1304.62	 1176.68
     71.4430	 1599.00	 1594.86	-1270.86	 1176.20
     71.4690	 1588.00	 1593.15	-1280.15	 1175.72
     71.4950	 1567.00	 1591.52	-1299.52	 1175.25
     71.5210	 1569.00	 1589.95	-1295.95	 1174.77
     71.5470	 1575.00	 1588.47	-1288.47	 1174.30
     71.5730	 1537.00	 1587.07	-1325.07	 1173.82
     71.5990	 1541.00	 1585.75	-1319.75	 1173.35
     71.6250	 1564.00	 1584.51	-1295.51	 1172.87
     71.6510	 1584.00	 1583.36	-1274.36	 1172.40
     71.6770	 1570.00	 1582.29	-1287.29	 1171.92
     71.7030	 1546.00	 1581.30	-1310.30	 1171.44
     71.7290	 1531.00	 1580.39	-1324.39	 1170.97
     71.7550	 1532.00	 1579.55	-1322.55	 1170.49
     71.7810	 1552.00	 1578.79	-1301.79	 1170.02
     71.8070	 1565.00	 1578.10	-1288.10	 1169.54
     71.8330	 1581.00	 1577.48	-1271.48	 1169.07
     71.8590	 1564.00	 1576.92	-1287.92	 1168.59
     71.8850	 1561.00	 1576.44	-1290.44	 1168.12
     71.9110	 1607.00	 1576.01	-1244.01	 1167.64
     71.9370	 1615.00	 1575.50	-1235.50	 1167.16
     71.9630	 1567.00	 1575.20	-1283.20	 1166.69
     71.9890	 1584.00	 1574.94	-1265.94	 1166.21
     72.0150	 1613.00	 1574.75	-1236.75	 1165.74
     72.0410	 1535.00	 1574.60	-1314.60	 1165.26
     72.0670	 1490.00	 1574.51	-1359.51	 1164.79
     72.0930	 1484.00	 1574.46	-1365.46	 1164.31
     72.1190	 1538.00	 1574.40	-1311.40	 1163.84
     72.1450	 1542.00	 1574.45	-1307.45	 1163.36
     72.1710	 1556.00	 1574.55	-1293.55	 1162.88
     72.1970	 1565.00	 1574.70	-1284.70	 1162.41
     72.2230	 1548.00	 1574.89	-1301.89	 1161.93
     72.2490	 1549.00	 1575.13	-1301.13	 1161.46
     72.2750	 1558.00	 1575.41	-1292.41	 1160.98
     72.3010	 1504.00	 1575.73	-1346.73	 1160.51
     72.3270	 1539.00	 1576.09	-1312.09	 1160.03
     72.3530	 1598.00	 1576.50	-1253.50	 1159.56
     72.3790	 1600.00	 1576.95	-1251.95	 1159.08
     72.4050	 1558.00	 1577.44	-1294.44	 1158.60
     72.4310	 1534.00	 1577.98	-1318.98	 1158.13
     72.4570	 1571.00	 1578.55	-1282.55	 1157.65
     72.4830	 1556.00	 1579.17	-1298.17	 1157.18
     72.5090	 1542.00	 1579.83	-1312.83	 1156.70
     72.5350	 1569.00	 1580.53	-1286.53	 1156.23
     72.5610	 1565.00	 1581.27	-1291.27	 1155.75
     72.5870	 1558.00	 1582.05	-1299.05	 1155.28
     72.6130	 1561.00	 1582.87	-1296.87	 1154.80
     72.6390	 1572.00	 1583.73	-1286.73	 1154.32
     72.6650	 1524.00	 1584.64	-1335.64	 1153.85
     72.6910	 1577.00	 1585.58	-1283.58	 1153.37
     72.7170	 1570.00	 1586.57	-1291.57	 1152.90
     72.7430	 1570.00	 1587.60	-1292.60	 1152.42
     72.7690	 1626.00	 1588.67	-1237.67	 1151.95
     72.7950	 1637.00	 1589.77	-1227.77	 1151.47
     72.8210	 1605.00	 1590.92	-1260.92	 1151.00
     72.8470	 1666.00	 1592.11	-1201.11	 1150.52
     72.8730	 1683.00	 1593.34	-1185.34	 1150.04
     72.8990	 1601.00	 1594.60	-1268.60	 1149.57
     72.9250	 1555.00	 1595.91	-1315.91	 1149.09
     72.9510	 1645.00	 1597.25	-1227.25	 1148.62
     72.9770	 1588.00	 1598.62	-1285.62	 1148.14
     73.0030	 1547.00	 1600.04	-1328.04	 1147.67
     73.0290	 1599.00	 1601.49	-1277.49	 1147.19
     73.0550	 1587.00	 1602.97	-1290.97	 1146.72
     73.0810	 1550.00	 1604.48	-1329.48	 1146.24
     73.1070	 1637.00	 1606.03	-1244.03	 1145.76
     73.1330	 1596.00	 1607.61	-1286.61	 1145.29
     73.1590	 1673.00	 1609.21	-1211.21	 1144.81
     73.1850	 1646.00	 1610.84	-1239.84	 1144.34
     73.2110	 1588.00	 1612.49	-1299.49	 1143.86
     73.2370	 1527.00	 1614.16	-1362.16	 1143.39
     73.2630	 1656.00	 1615.85	-1234.85	 1142.91
     73.2890	 1556.00	 1617.55	-1336.55	 1142.43
     73.3150	 1607.00	 1619.27	-1287.27	 1141.96
     73.3410	 1586.00	 1621.00	-1310.00	 1141.48
     73.3670	 1606.00	 1622.73	-1291.73	 1141.01
     73.3930	 1644.00	 1624.46	-1255.46	 1140.53
     73.4190	 1642.00	 1626.20	-1259.20	 1140.06
     73.4450	 1694.00	 1627.92	-1208.92	 1139.58
     73.4710	 1645.00	 1629.64	-1259.64	 1139.11
     73.4970	 1679.00	 1631.34	-1227.34	 1138.63
     73.5230	 1676.00	 1633.03	-1232.03	 1138.15
     73.5490	 1600.00	 1634.69	-1309.69	 1137.68
     73.5750	 1615.00	 1636.33	-1296.33	 1137.20
     73.6010	 1605.00	 1637.93	-1307.93	 1136.73
     73.6270	 1651.00	 1639.50	-1263.50	 1136.25
     73.6530	 1656.00	 1641.02	-1260.02	 1135.78
     73.6790	 1678.00	 1642.50	-1239.50	 1135.30
     73.7050	 1635.00	 1643.93	-1283.93	 1134.83
     73.7310	 1665.00	 1645.30	-1255.30	 1134.35
     73.7570	 1623.00	 1646.61	-1298.61	 1133.87
     73.7830	 1586.00	 1647.86	-1336.86	 1133.40
     73.8090	 1568.00	 1649.05	-1356.05	 1132.92
     73.8350	 1571.00	 1650.16	-1354.16	 1132.45
     73.8610	 1678.00	 1651.20	-1248.20	 1131.97
     73.8870	 1670.00	 1652.16	-1257.16	 1131.50
     73.9130	 1681.00	 1653.05	-1247.05	 1131.02
     73.9390	 1614.00	 1653.85	-1314.85	 1130.55
     73.9650	 1615.00	 1654.58	-1314.58	 1130.07
     73.9910	 1652.00	 1655.22	-1278.22	 1129.59
     74.0170	 1626.00	 1655.78	-1304.78	 1129.12
     74.0430	 1687.00	 1656.25	-1244.25	 1128.64
     74.0690	 1687.00	 1656.65	-1244.65	 1128.17
     74.0950	 1628.00	 1656.96	-1303.96	 1127.69
     74.1210	 1680.00	 1657.19	-1252.19	 1127.22
     74.1470	 1698.00	 1657.35	-1234.35	 1126.74
     74.1730	 1680.00	 1657.43	-1252.43	 1126.27
     74.1990	 1692.00	 1657.44	-1240.44	 1125.79
     74.2250	 1699.00	 1657.38	-1233.38	 1125.31
     74.2510	 1710.00	 1657.26	-1222.26	 1124.84
     74.2770	 1705.00	 1657.08	-1227.08	 1124.36
     74.3030	 1682.00	 1656.84	-1249.84	 1123.89
     74.3290	 1640.00	 1656.55	-1291.55	 1123.41
     74.3550	 1701.00	 1656.20	-1230.20	 1122.94
     74.3810	 1712.00	 1655.82	-1218.82	 1122.46
     74.4070	 1677.00	 1655.39	-1253.39	 1121.99
     74.4330	 1709.00	 1654.93	-1220.93	 1121.51
     74.4590	 1693.00	 1654.42	-1236.42	 1121.03
     74.4850	 1653.00	 1653.89	-1275.89	 1120.56
     74.5110	 1673.00	 1653.33	-1255.33	 1120.08
     74.5370	 1714.00	 1652.73	-1213.73	 1119.61
     74.5630	 1714.00	 1652.11	-1213.11	 1119.13
     74.5890	 1681.00	 1651.45	-1245.45	 1118.66
     74.6150	 1629.00	 1650.77	-1296.77	 1118.18
     74.6410	 1620.00	 1650.04	-1305.04	 1117.71
     74.6670	 1632.00	 1649.28	-1292.28	 1117.23
     74.6930	 1646.00	 1648.47	-1277.47	 1116.75
     74.7190	 1631.00	 1647.61	-1291.61	 1116.28
     74.7450	 1576.00	 1646.70	-1345.70	 1115.80
     74.7710	 1628.00	 1645.72	-1292.72	 1115.33
     74.7970	 1648.00	 1644.66	-1271.66	 1114.85
     74.8230	 1658.00	 1643.53	-1260.53	 1114.38
     74.8490	 1690.00	 1642.31	-1227.31	 1113.90
     74.8750	 1627.00	 1640.98	-1288.98	 1113.43
     74.9010	 1642.00	 1639.55	-1272.55	 1112.95
     74.9270	 1640.00	 1638.01	-1273.01	 1112.47
     74.9530	 1631.00	 1636.35	-1280.35	 1112.00
     74.9790	 1615.00	 1634.56	-1294.56	 1111.52
     75.0050	 1622.00	 1632.64	-1285.64	 1111.05
     75.0310	 1598.00	 1630.59	-1307.59	 1110.57
     75.0570	 1637.00	 1628.41	-1266.41	 1110.10
     75.0830	 1595.00	 1626.10	-1306.10	 1109.62
     75.1090	 1598.00	 1623.65	-1300.65	 1109.15
     75.1350	 1603.00	 1621.09	-1293.09	 1108.67
     75.1610	 1612.00	 1618.40	-1281.40	 1108.19
     75.1870	 1649.00	 1615.61	-1241.61	 1107.72
     75.2130	 1601.00	 1612.71	-1286.71	 1107.24
     75.2390	 1556.00	 1609.72	-1328.72	 1106.77
     75.2650	 1589.00	 1606.65	-1292.65	 1106.29
     75.2910	 1574.00	 1603.50	-1304.50	 1105.82
     75.3170	 1618.00	 1600.30	-1257.30	 1105.34
     75.3430	 1595.00	 1597.05	-1277.05	 1104.86
     75.3690	 1563.00	 1593.77	-1305.77	 1104.39
     75.3950	 1562.00	 1590.46	-1303.46	 1103.91
     75.4210	 1574.00	 1587.15	-1288.15	 1103.44
     75.4470	 1606.00	 1583.83	-1252.83	 1102.96
     75.4730	 1622.00	 1580.51	-1233.51	 1102.49
     75.4990	 1608.00	 1577.22	-1244.22	 1102.01
     75.5250	 1538.00	 1573.95	-1310.95	 1101.54
     75.5510	 1489.00	 1570.72	-1356.72	 1101.06
     75.5770	 1558.00	 1567.53	-1284.53	 1100.58
     75.6030	 1550.00	 1564.38	-1289.38	 1100.11
     75.6290	 1515.00	 1561.29	-1321.29	 1099.63
     75.6550	 1506.00	 1558.25	-1327.25	 1099.16
     75.6810	 1521.00	 1555.27	-1309.27	 1098.68
     75.7070	 1615.00	 1552.36	-1212.36	 1098.21
     75.7330	 1581.00	 1549.51	-1243.51	 1097.73
     75.7590	 1581.00	 1546.72	-1240.72	 1097.26
     75.7850	 1519.00	 1544.01	-1300.01	 1096.78
     75.8110	 1542.00	 1541.36	-1274.36	 1096.30
     75.8370	 1515.00	 1538.78	-1298.78	 1095.83
     75.8630	 1525.00	 1536.26	-1286.26	 1095.35
     75.8890	 1533.00	 1533.82	-1275.82	 1094.88
     75.9150	 1530.00	 1531.44	-1276.44	 1094.40
     75.9410	 1537.00	 1529.12	-1267.12	 1093.93
     75.9670	 1612.00	 1526.88	-1189.88	 1093.45
     75.9930	 1606.00	 1524.69	-1193.69	 1092.98
     76.0190	 1553.00	 1522.57	-1244.57	 1092.50
     76.0450	 1524.00	 1520.50	-1271.50	 1092.02
     76.0710	 1524.00	 1518.50	-1269.50	 1091.55
     76.0970	 1542.00	 1516.55	-1249.55	 1091.07
     76.1230	 1529.00	 1514.66	-1260.66	 1090.60
     76.1490	 1541.00	 1512.82	-1246.82	 1090.12
     76.1750	 1469.00	 1511.04	-1317.04	 1089.65
     76.2010	 1518.00	 1509.31	-1266.31	 1089.17
     76.2270	 1538.00	 1507.62	-1244.62	 1088.70
     76.2530	 1507.00	 1505.99	-1273.99	 1088.22
     76.2790	 1467.00	 1504.40	-1312.40	 1087.74
     76.3050	 1538.00	 1502.86	-1239.86	 1087.27
     76.3310	 1466.00	 1501.36	-1310.36	 1086.79
     76.3570	 1507.00	 1499.90	-1267.90	 1086.32
     76.3830	 1530.00	 1498.48	-1243.48	 1085.84
     76.4090	 1571.00	 1497.11	-1201.11	 1085.37
     76.4350	 1545.00	 1495.77	-1225.77	 1084.89
     76.4610	 1509.00	 1494.47	-1260.47	 1084.42
     76.4870	 1481.00	 1493.21	-1287.21	 1083.94
     76.5130	 1493.00	 1491.98	-1273.98	 1083.46
     76.5390	 1456.00	 1490.79	-1309.79	 1082.99
     76.5650	 1480.00	 1489.63	-1284.63	 1082.51
     76.5910	 1489.00	 1488.50	-1274.50	 1082.04
     76.6170	 1483.00	 1487.41	-1279.41	 1081.56
     76.6430	 1469.00	 1486.34	-1292.34	 1081.09
     76.6690	 1443.00	 1485.31	-1317.31	 1080.61
     76.6950	 1475.00	 1484.30	-1284.30	 1080.14
     76.7210	 1546.00	 1483.33	-1212.33	 1079.66
     76.7470	 1514.00	 1482.38	-1243.38	 1079.18
     76.7730	 1469.00	 1481.45	-1287.45	 1078.71
     76.7990	 1458.00	 1480.56	-1297.56	 1078.23
     76.8250	 1463.00	 1479.69	-1291.69	 1077.76
     76.8510	 1467.00	 1478.84	-1286.84	 1077.28
     76.8770	 1479.00	 1478.02	-1274.02	 1076.81
     76.9030	 1507.00	 1477.22	-1245.22	 1076.33
     76.9290	 1517.00	 1476.45	-1234.45	 1075.86
     76.9550	 1478.00	 1475.70	-1272.70	 1075.38
     76.9810	 1481.00	 1474.97	-1268.97	 1074.90
     77.0070	 1469.00	 1474.26	-1280.26	 1074.43
     77.0330	 1470.00	 1473.58	-1278.58	 1073.95
     77.0590	 1469.00	 1472.91	-1278.91	 1073.48
     77.0850	 1490.00	 1472.27	-1257.27	 1073.00
     77.1110	 1504.00	 1471.65	-1242.65	 1072.53
     77.1370	 1468.00	 1471.04	-1278.04	 1072.05
     77.1630	 1451.00	 1470.46	-1294.46	 1071.57
     77.1890	 1438.00	 1469.90	-1306.90	 1071.10
     77.2150	 1516.00	 1469.35	-1228.35	 1070.62
     77.2410	 1512.00	 1468.82	-1231.82	 1070.15
     77.2670	 1444.00	 1468.31	-1299.31	 1069.67
     77.2930	 1440.00	 1467.64	-1302.64	 1069.01
     77.3190	 1412.00	 1466.98	-1329.98	 1068.35
     77.3450	 1453.00	 1466.34	-1288.34	 1067.69
     77.3710	 1478.00	 1465.72	-1262.72	 1067.03
     77.3970	 1463.00	 1465.11	-1277.11	 1066.37
     77.4230	 1431.00	 1464.52	-1308.52	 1065.71
     77.4490	 1416.00	 1463.95	-1322.95	 1065.05
     77.4750	 1467.00	 1463.39	-1271.39	 1064.40
     77.5010	 1453.00	 1462.67	-1284.67	 1063.74
     77.5270	 1425.00	 1462.15	-1312.15	 1063.08
     77.5530	 1430.00	 1461.63	-1306.63	 1062.42
     77.5790	 1452.00	 1461.13	-1284.13	 1061.76
     77.6050	 1472.00	 1460.65	-1263.65	 1061.10
     77.6310	 1463.00	 1460.18	-1272.18	 1060.44
     77.6570	 1471.00	 1459.72	-1263.72	 1059.79
     77.6830	 1546.00	 1459.28	-1188.28	 1059.13
     77.7090	 1407.00	 1458.76	-1326.76	 1058.47
     77.7350	 1412.00	 1458.33	-1321.33	 1057.81
     77.7610	 1458.00	 1457.92	-1274.92	 1057.15
     77.7870	 1449.00	 1457.53	-1283.53	 1056.49
     77.8130	 1414.00	 1457.14	-1318.14	 1055.83
     77.8390	 1443.00	 1456.76	-1288.76	 1055.17
     77.8650	 1402.00	 1456.39	-1329.39	 1054.52
     77.8910	 1430.00	 1456.03	-1301.03	 1053.86
     77.9170	 1437.00	 1455.68	-1293.68	 1053.20
     77.9430	 1463.00	 1455.33	-1267.33	 1052.54
     77.9690	 1457.00	 1455.00	-1273.00	 1051.88
     77.9950	 1508.00	 1454.66	-1221.66	 1051.22
     78.0210	 1470.00	 1454.34	-1259.34	 1050.56
     78.0470	 1427.00	 1454.02	-1302.02	 1049.90
     78.0730	 1495.00	 1453.70	-1233.70	 1049.25
     78.0990	 1472.00	 1453.39	-1256.39	 1048.59
     78.1250	 1458.00	 1453.08	-1270.08	 1047.93
     78.1510	 1491.00	 1452.77	-1236.77	 1047.27
     78.1770	 1466.00	 1452.46	-1261.46	 1046.61
     78.2030	 1465.00	 1452.16	-1262.16	 1045.95
     78.2290	 1410.00	 1451.85	-1316.85	 1045.29
     78.2550	 1504.00	 1451.54	-1222.54	 1044.63
     78.2810	 1455.00	 1451.23	-1271.23	 1043.98
     78.3070	 1587.00	 1450.91	-1138.91	 1043.32
     78.3330	 1492.00	 1450.59	-1233.59	 1042.66
     78.3590	 1487.00	 1450.26	-1238.26	 1042.00
     78.3850	 1415.00	 1449.93	-1309.93	 1041.34
     78.4110	 1464.00	 1449.59	-1260.59	 1040.68
     78.4370	 1485.00	 1449.21	-1239.21	 1040.02
     78.4630	 1482.00	 1448.85	-1241.85	 1039.37
     78.4890	 1442.00	 1448.48	-1281.48	 1038.71
     78.5150	 1500.00	 1448.10	-1223.10	 1038.05
     78.5410	 1465.00	 1447.70	-1257.70	 1037.39
     78.5670	 1462.00	 1447.30	-1260.30	 1036.73
     78.5930	 1427.00	 1446.88	-1294.88	 1036.07
     78.6190	 1469.00	 1446.44	-1252.44	 1035.41
     78.6450	 1505.00	 1445.97	-1215.97	 1034.75
     78.6710	 1529.00	 1445.49	-1191.49	 1034.10
     78.6970	 1433.00	 1445.00	-1287.00	 1033.44
     78.7230	 1462.00	 1444.49	-1257.49	 1032.78
     78.7490	 1452.00	 1443.96	-1266.96	 1032.12
     78.7750	 1463.00	 1443.41	-1255.41	 1031.46
     78.8010	 1469.00	 1442.84	-1248.84	 1030.80
     78.8270	 1446.00	 1442.25	-1271.25	 1030.14
     78.8530	 1475.00	 1441.63	-1241.63	 1029.48
     78.8790	 1470.00	 1440.99	-1245.99	 1028.83
     78.9050	 1433.00	 1440.32	-1282.32	 1028.17
     78.9310	 1460.00	 1439.63	-1254.63	 1027.51
     78.9570	 1460.00	 1438.92	-1253.92	 1026.85
     78.9830	 1463.00	 1438.18	-1250.18	 1026.19
     79.0090	 1458.00	 1437.42	-1254.42	 1025.53
     79.0350	 1450.00	 1436.63	-1261.63	 1024.87
     79.0610	 1448.00	 1435.82	-1262.82	 1024.22
     79.0870	 1423.00	 1434.98	-1286.98	 1023.56
     79.1130	 1491.00	 1434.11	-1218.11	 1022.90
     79.1390	 1435.00	 1433.22	-1273.22	 1022.24
     79.1650	 1397.00	 1432.31	-1310.31	 1021.58
     79.1910	 1425.00	 1431.37	-1281.37	 1020.92
     79.2170	 1402.00	 1430.41	-1303.41	 1020.26
     79.2430	 1407.00	 1429.42	-1297.42	 1019.60
     79.2690	 1413.00	 1428.41	-1290.41	 1018.95
     79.2950	 1441.00	 1427.38	-1261.38	 1018.29
     79.3210	 1456.00	 1426.32	-1245.32	 1017.63
     79.3470	 1406.00	 1425.25	-1294.25	 1016.97
     79.3730	 1389.00	 1424.15	-1310.15	 1016.31
     79.3990	 1399.00	 1423.03	-1299.03	 1015.65
     79.4250	 1388.00	 1421.90	-1308.90	 1014.99
     79.4510	 1414.00	 1420.74	-1281.74	 1014.33
     79.4770	 1435.00	 1419.57	-1259.57	 1013.68
     79.5030	 1379.00	 1418.38	-1314.38	 1013.02
     79.5290	 1326.00	 1417.18	-1366.18	 1012.36
     79.5550	 1372.00	 1415.96	-1318.96	 1011.70
     79.5810	 1362.00	 1414.73	-1327.73	 1011.04
     79.6070	 1374.00	 1413.48	-1314.48	 1010.38
     79.6330	 1407.00	 1412.22	-1280.22	 1009.72
     79.6590	 1387.00	 1410.95	-1298.95	 1009.06
     79.6850	 1369.00	 1409.67	-1315.67	 1008.41
     79.7110	 1369.00	 1408.58	-1314.58	 1007.94
     79.7370	 1360.00	 1407.94	-1322.94	 1007.94
     79.7630	 1348.00	 1407.29	-1334.29	 1007.94
     79.7890	 1358.00	 1406.64	-1323.64	 1007.94
     79.8150	 1353.00	 1405.98	-1327.98	 1007.94
     79.8410	 1392.00	 1405.32	-1288.32	 1007.94
     79.8670	 1399.00	 1404.65	-1280.65	 1007.94
     18.2905	        	        	        	        	       0	(  1  1  1)	  0  1
     18.3368	        	        	        	        	       0	(  1  1  1)	  0  2
     30.0861	        	        	        	        	       0	(  2  2  0)	  0  1
     30.1634	        	        	        	        	       0	(  2  2  0)	  0  2
     35.4373	        	        	        	        	       0	(  3  1  1)	  0  1
     35.5292	        	        	        	        	       0	(  3  1  1)	  0  2
     37.0690	        	        	        	        	       0	(  2  2  2)	  0  1
     37.1654	        	        	        	        	       0	(  2  2  2)	  0  2
     43.0678	        	        	        	        	       0	(  4  0  0)	  0  1
     43.1813	        	        	        	        	       0	(  4  0  0)	  0  2
     47.1545	        	        	        	        	       0	(  3  3  1)	  0  1
     47.2800	        	        	        	        	       0	(  3  3  1)	  0  2
     53.4289	        	        	        	        	       0	(  4  2  2)	  0  1
     53.5737	        	        	        	        	       0	(  4  2  2)	  0  2
     56.9550	        	        	        	        	       0	(  3  3  3)	  0  1
     56.9550	        	        	        	        	       0	(  5  1  1)	  0  1
     57.1111	        	        	        	        	       0	(  3  3  3)	  0  2
     57.1111	        	        	        	        	       0	(  5  1  1)	  0  2
     62.5423	        	        	        	        	       0	(  4  4  0)	  0  1
     62.7171	        	        	        	        	       0	(  4  4  0)	  0  2
     65.7593	        	        	        	        	       0	(  5  3  1)	  0  1
     65.9453	        	        	        	        	       0	(  5  3  1)	  0  2
     66.8132	        	        	        	        	       0	(  4  4  2)	  0  1
     67.0030	        	        	        	        	       0	(  4  4  2)	  0  2
     70.9516	        	        	        	        	       0	(  6  2  0)	  0  1
     71.1567	        	        	        	        	       0	(  6  2  0)	  0  2
     73.9877	        	        	        	        	       0	(  5  3  3)	  0  1
     74.2045	        	        	        	        	       0	(  5  3  3)	  0  2
     74.9891	        	        	        	        	       0	(  6  2  2)	  0  1
     75.2099	        	        	        	        	       0	(  6  2  2)	  0  2
     78.9515	        	        	        	        	       0	(  4  4  4)	  0  1
     79.1886	        	        	        	        	       0	(  4  4  4)	  0  2
