 DD144    CELL:    8.37404   8.37404   8.37404   90.0000   90.0000   90.0000   SPGR: F d -3 m               TEMP:      0.00
  1   2495     1.54056     1.54443     0.00000     0.00000     0.00000    0
    32     0     0
 2Theta	Yobs	Ycal	Yobs-Ycal	Backg	Posr	(hkl)	K
     15.0230	 3588.00	 3610.48	-1727.42	 3099.41
     15.0490	 3570.00	 3612.12	-1747.07	 3100.90
     15.0750	 3597.00	 3613.77	-1721.71	 3102.40
     15.1010	 3647.00	 3615.42	-1673.36	 3103.90
     15.1270	 3609.00	 3617.07	-1713.02	 3105.39
     15.1530	 3560.00	 3618.73	-1763.67	 3106.89
     15.1790	 3699.00	 3620.39	-1626.33	 3108.39
     15.2050	 3658.00	 3622.05	-1669.00	 3109.88
     15.2310	 3594.00	 3623.72	-1734.66	 3111.38
     15.2570	 3643.00	 3625.39	-1687.33	 3112.88
     15.2830	 3669.00	 3627.06	-1663.00	 3114.37
     15.3090	 3684.00	 3628.74	-1649.68	 3115.87
     15.3350	 3578.00	 3630.42	-1757.36	 3117.37
     15.3610	 3655.00	 3632.10	-1682.05	 3118.86
     15.3870	 3606.00	 3633.79	-1732.73	 3120.36
     15.4130	 3766.00	 3635.48	-1574.43	 3121.86
     15.4390	 3682.00	 3637.18	-1660.12	 3123.35
     15.4650	 3550.00	 3638.88	-1793.83	 3124.85
     15.4910	 3619.00	 3640.58	-1726.53	 3126.35
     15.5170	 3576.00	 3642.29	-1771.24	 3127.84
     15.5430	 3556.00	 3644.01	-1792.96	 3129.34
     15.5690	 3663.00	 3645.73	-1687.68	 3130.84
     15.5950	 3697.00	 3647.46	-1655.40	 3132.33
     15.6210	 3737.00	 3649.19	-1617.13	 3133.83
     15.6470	 3801.00	 3650.92	-1554.87	 3135.33
     15.6730	 3611.00	 3652.66	-1746.61	 3136.82
     15.6990	 3662.00	 3654.41	-1697.36	 3138.32
     15.7250	 3805.00	 3656.16	-1556.11	 3139.82
     15.7510	 3749.00	 3657.92	-1613.87	 3141.31
     15.7770	 3762.00	 3659.69	-1602.64	 3142.81
     15.8030	 3776.00	 3661.46	-1590.41	 3144.31
     15.8290	 3683.00	 3663.24	-1685.19	 3145.80
     15.8550	 3766.00	 3665.03	-1603.97	 3147.30
     15.8810	 3744.00	 3666.82	-1627.77	 3148.80
     15.9070	 3755.00	 3668.62	-1618.57	 3150.29
     15.9330	 3640.00	 3670.43	-1735.38	 3151.79
     15.9590	 3674.00	 3672.25	-1703.20	 3153.29
     15.9850	 3701.00	 3674.08	-1678.03	 3154.78
     16.0110	 3729.00	 3675.91	-1651.86	 3156.28
     16.0370	 3660.00	 3677.76	-1722.71	 3157.78
     16.0630	 3715.00	 3679.61	-1669.56	 3159.27
     16.0890	 3680.00	 3682.58	-1707.53	 3161.87
     16.1150	 3758.00	 3686.46	-1633.41	 3165.37
     16.1410	 3725.00	 3690.35	-1670.30	 3168.88
     16.1670	 3717.00	 3694.25	-1682.20	 3172.38
     16.1930	 3779.00	 3698.17	-1624.11	 3175.88
     16.2190	 3807.00	 3702.09	-1600.04	 3179.38
     16.2450	 3740.00	 3706.03	-1670.98	 3182.88
     16.2710	 3698.00	 3709.98	-1716.93	 3186.39
     16.2970	 3748.00	 3713.94	-1670.89	 3189.89
     16.3230	 3678.00	 3717.92	-1744.87	 3193.39
     16.3490	 3704.00	 3721.92	-1722.86	 3196.89
     16.3750	 3818.00	 3725.92	-1612.87	 3200.39
     16.4010	 3863.00	 3729.95	-1571.89	 3203.90
     16.4270	 3811.00	 3733.99	-1627.93	 3207.40
     16.4530	 3774.00	 3738.05	-1668.99	 3210.90
     16.4790	 3789.00	 3742.12	-1658.07	 3214.40
     16.5050	 3810.00	 3746.22	-1641.16	 3217.91
     16.5310	 3804.00	 3750.33	-1651.28	 3221.41
     16.5570	 3867.00	 3754.47	-1592.41	 3224.91
     16.5830	 3894.00	 3758.62	-1569.57	 3228.41
     16.6090	 3837.00	 3762.80	-1630.74	 3231.91
     16.6350	 3804.00	 3767.00	-1667.95	 3235.42
     16.6610	 3764.00	 3771.22	-1712.17	 3238.92
     16.6870	 3804.00	 3775.47	-1676.42	 3242.42
     16.7130	 3923.00	 3779.75	-1561.70	 3245.92
     16.7390	 3831.00	 3784.06	-1658.00	 3249.42
     16.7650	 3786.00	 3788.39	-1707.33	 3252.93
     16.7910	 3897.00	 3792.75	-1600.70	 3256.43
     16.8170	 3864.00	 3797.15	-1638.09	 3259.93
     16.8430	 3792.00	 3801.57	-1714.52	 3263.43
     16.8690	 3876.00	 3806.04	-1634.98	 3266.93
     16.8950	 3980.00	 3810.54	-1535.48	 3270.44
     16.9210	 3937.00	 3816.49	-1584.44	 3275.36
     16.9470	 3861.00	 3824.43	-1668.37	 3282.22
     16.9730	 3863.00	 3832.40	-1674.35	 3289.08
     16.9990	 3893.00	 3840.42	-1652.37	 3295.95
     17.0250	 3878.00	 3848.49	-1675.43	 3302.81
     17.0510	 3882.00	 3856.60	-1679.55	 3309.67
     17.0770	 3872.00	 3864.76	-1697.71	 3316.54
     17.1030	 3871.00	 3872.97	-1706.92	 3323.40
     17.1290	 3944.00	 3881.24	-1642.18	 3330.26
     17.1550	 3930.00	 3889.56	-1664.50	 3337.12
     17.1810	 3932.00	 3897.93	-1670.88	 3343.99
     17.2070	 3966.00	 3906.37	-1645.32	 3350.85
     17.2330	 3931.00	 3914.88	-1688.82	 3357.71
     17.2590	 3961.00	 3923.44	-1667.39	 3364.58
     17.2850	 3910.00	 3932.08	-1727.03	 3371.44
     17.3110	 3930.00	 3940.79	-1715.73	 3378.30
     17.3370	 3953.00	 3949.57	-1701.51	 3385.16
     17.3630	 4131.00	 3958.42	-1532.37	 3392.03
     17.3890	 4124.00	 3967.36	-1548.30	 3398.89
     17.4150	 4046.00	 3976.38	-1635.32	 3405.75
     17.4410	 4010.00	 3985.48	-1680.42	 3412.61
     17.4670	 3875.00	 3994.66	-1824.61	 3419.48
     17.4930	 3839.00	 4003.93	-1869.88	 3426.34
     17.5190	 3943.00	 4013.30	-1775.24	 3433.20
     17.5450	 4040.00	 4022.75	-1687.70	 3440.07
     17.5710	 3978.00	 4032.30	-1759.24	 3446.93
     17.5970	 3981.00	 4041.94	-1765.88	 3453.79
     17.6230	 3959.00	 4051.67	-1797.61	 3460.65
     17.6490	 4176.00	 4061.49	-1590.44	 3467.52
     17.6750	 4040.00	 4071.40	-1736.35	 3474.38
     17.7010	 4086.00	 4081.40	-1700.35	 3481.24
     17.7270	 3992.00	 4091.49	-1804.44	 3488.11
     17.7530	 4187.00	 4101.65	-1619.60	 3494.97
     17.7790	 4102.00	 4111.89	-1714.83	 3501.83
     17.8050	 4067.00	 4120.79	-1758.73	 3507.29
     17.8310	 4142.00	 4128.71	-1691.66	 3511.72
     17.8570	 4047.00	 4136.68	-1794.62	 3516.15
     17.8830	 4025.00	 4144.68	-1824.62	 3520.57
     17.9090	 4208.00	 4152.69	-1649.64	 3525.00
     17.9350	 4080.00	 4160.71	-1785.65	 3529.43
     17.9610	 4217.00	 4168.70	-1656.65	 3533.86
     17.9870	 4139.00	 4176.65	-1742.60	 3538.29
     18.0130	 4124.00	 4184.53	-1765.48	 3542.72
     18.0390	 4075.00	 4192.33	-1822.27	 3547.15
     18.0650	 4051.00	 4200.00	-1853.95	 3551.57
     18.0910	 4222.00	 4207.53	-1690.47	 3556.00
     18.1170	 4200.00	 4214.88	-1719.83	 3560.43
     18.1430	 4142.00	 4222.03	-1784.97	 3564.86
     18.1690	 4079.00	 4228.94	-1854.89	 3569.29
     18.1950	 4016.00	 4235.59	-1924.54	 3573.72
     18.2210	 4261.00	 4241.96	-1685.91	 3578.15
     18.2470	 4289.00	 4248.02	-1663.96	 3582.57
     18.2730	 4205.00	 4253.74	-1753.69	 3587.00
     18.2990	 4326.00	 4259.12	-1638.07	 3591.43
     18.3250	 4302.00	 4264.14	-1667.09	 3595.86
     18.3510	 3990.00	 4268.80	-1983.74	 3600.29
     18.3770	 4027.00	 4273.08	-1951.03	 3604.72
     18.4030	 4133.00	 4277.00	-1848.95	 3609.15
     18.4290	 4288.00	 4280.57	-1697.51	 3613.57
     18.4550	 4257.00	 4283.78	-1731.73	 3618.00
     18.4810	 4222.00	 4286.67	-1769.62	 3622.43
     18.5070	 4135.00	 4289.25	-1859.20	 3626.86
     18.5330	 4217.00	 4291.54	-1779.49	 3631.29
     18.5590	 4127.00	 4293.58	-1871.52	 3635.72
     18.5850	 4121.00	 4295.38	-1879.32	 3640.15
     18.6110	 4222.00	 4296.98	-1779.92	 3644.57
     18.6370	 4203.00	 4298.40	-1800.34	 3649.00
     18.6630	 4198.00	 4299.68	-1806.62	 3653.43
     18.6890	 4191.00	 4300.84	-1814.78	 3657.86
     18.7150	 4162.00	 4301.91	-1844.85	 3662.29
     18.7410	 4140.00	 4302.91	-1867.86	 3666.72
     18.7670	 4206.00	 4303.88	-1802.82	 3671.14
     18.7930	 4219.00	 4304.82	-1790.77	 3675.57
     18.8190	 4136.00	 4305.77	-1874.71	 3680.00
     18.8450	 4212.00	 4306.73	-1799.67	 3684.43
     18.8710	 4238.00	 4307.72	-1774.66	 3688.86
     18.8970	 4219.00	 4308.75	-1794.70	 3693.29
     18.9230	 4201.00	 4309.85	-1813.79	 3697.72
     18.9490	 4217.00	 4311.01	-1798.95	 3702.14
     18.9750	 4108.00	 4312.24	-1909.19	 3706.57
     19.0010	 4168.00	 4313.55	-1850.50	 3711.00
     19.0270	 4216.00	 4314.95	-1803.89	 3715.43
     19.0530	 4157.00	 4316.43	-1864.38	 3719.86
     19.0790	 4200.00	 4318.00	-1822.95	 3724.29
     19.1050	 4178.00	 4319.67	-1846.62	 3728.72
     19.1310	 4172.00	 4321.43	-1854.38	 3733.14
     19.1570	 4230.00	 4320.67	-1795.62	 3734.96
     19.1830	 4280.00	 4319.86	-1744.80	 3736.63
     19.2090	 4171.00	 4319.13	-1853.08	 3738.30
     19.2350	 4101.00	 4318.50	-1922.44	 3739.97
     19.2610	 4161.00	 4317.95	-1861.90	 3741.64
     19.2870	 4235.00	 4317.49	-1787.44	 3743.31
     19.3130	 4133.00	 4317.11	-1889.06	 3744.98
     19.3390	 4188.00	 4316.82	-1833.76	 3746.65
     19.3650	 4302.00	 4316.60	-1719.55	 3748.32
     19.3910	 4259.00	 4316.46	-1762.41	 3750.00
     19.4170	 4228.00	 4316.39	-1793.34	 3751.67
     19.4430	 4251.00	 4316.40	-1770.34	 3753.34
     19.4690	 4276.00	 4316.47	-1745.41	 3755.01
     19.4950	 4234.00	 4316.61	-1787.55	 3756.68
     19.5210	 4263.00	 4316.81	-1758.75	 3758.35
     19.5470	 4225.00	 4317.07	-1797.01	 3760.02
     19.5730	 4119.00	 4317.39	-1903.33	 3761.69
     19.5990	 4157.00	 4317.76	-1865.71	 3763.36
     19.6250	 4186.00	 4318.19	-1837.14	 3765.03
     19.6510	 4239.00	 4318.98	-1784.93	 3766.70
     19.6770	 4313.00	 4319.51	-1711.46	 3768.37
     19.7030	 4297.00	 4320.09	-1728.03	 3770.04
     19.7290	 4222.00	 4320.71	-1803.66	 3771.71
     19.7550	 4247.00	 4321.37	-1779.32	 3773.38
     19.7810	 4404.00	 4322.23	-1623.18	 3775.05
     19.8070	 4371.00	 4322.98	-1656.93	 3776.72
     19.8330	 4315.00	 4323.76	-1713.71	 3778.39
     19.8590	 4266.00	 4324.58	-1763.53	 3780.06
     19.8850	 4373.00	 4325.44	-1657.38	 3781.73
     19.9110	 4342.00	 4326.32	-1689.27	 3783.40
     19.9370	 4255.00	 4327.24	-1777.19	 3785.07
     19.9630	 4284.00	 4328.19	-1749.14	 3786.74
     19.9890	 4376.00	 4329.17	-1658.12	 3788.41
     20.0150	 4329.00	 4330.18	-1706.12	 3790.08
     20.0410	 4332.00	 4331.21	-1704.15	 3791.75
     20.0670	 4375.00	 4332.27	-1662.21	 3793.42
     20.0930	 4319.00	 4333.35	-1719.30	 3795.09
     20.1190	 4404.00	 4334.46	-1635.40	 3796.76
     20.1450	 4279.00	 4335.58	-1761.53	 3798.43
     20.1710	 4367.00	 4336.73	-1674.68	 3800.10
     20.1970	 4374.00	 4337.91	-1668.85	 3801.77
     20.2230	 4294.00	 4339.10	-1750.04	 3803.44
     20.2490	 4384.00	 4340.31	-1661.25	 3805.11
     20.2750	 4394.00	 4341.53	-1652.48	 3806.78
     20.3010	 4356.00	 4342.78	-1691.72	 3808.45
     20.3270	 4392.00	 4344.04	-1656.99	 3810.12
     20.3530	 4375.00	 4345.32	-1675.27	 3811.79
     20.3790	 4357.00	 4346.61	-1694.56	 3813.46
     20.4050	 4386.00	 4347.92	-1666.87	 3815.13
     20.4310	 4475.00	 4349.25	-1579.19	 3816.80
     20.4570	 4403.00	 4350.58	-1652.53	 3818.47
     20.4830	 4464.00	 4351.93	-1592.88	 3820.15
     20.5090	 4438.00	 4353.30	-1620.24	 3821.82
     20.5350	 4343.00	 4354.67	-1716.62	 3823.49
     20.5610	 4426.00	 4356.06	-1635.01	 3825.16
     20.5870	 4349.00	 4357.46	-1713.41	 3826.83
     20.6130	 4461.00	 4358.87	-1602.82	 3828.50
     20.6390	 4452.00	 4360.29	-1613.24	 3830.17
     20.6650	 4378.00	 4361.72	-1688.67	 3831.84
     20.6910	 4645.00	 4363.16	-1423.11	 3833.51
     20.7170	 4431.00	 4364.61	-1638.56	 3835.18
     20.7430	 4640.00	 4366.07	-1431.02	 3836.85
     20.7690	 4554.00	 4367.54	-1518.49	 3838.52
     20.7950	 4397.00	 4369.02	-1676.97	 3840.19
     20.8210	 4544.00	 4370.51	-1531.45	 3841.86
     20.8470	 4496.00	 4372.00	-1580.95	 3843.53
     20.8730	 4491.00	 4373.50	-1587.45	 3845.20
     20.8990	 4517.00	 4375.01	-1562.96	 3846.87
     20.9250	 4640.00	 4376.53	-1441.48	 3848.54
     20.9510	 4572.00	 4378.06	-1511.00	 3850.21
     20.9770	 4544.00	 4379.59	-1540.53	 3851.88
     21.0030	 4586.00	 4381.30	-1500.25	 3853.73
     21.0290	 4453.00	 4383.59	-1635.54	 3856.14
     21.0550	 4584.00	 4385.88	-1506.83	 3858.55
     21.0810	 4533.00	 4388.18	-1560.13	 3860.96
     21.1070	 4553.00	 4390.49	-1542.43	 3863.38
     21.1330	 4621.00	 4392.80	-1476.75	 3865.79
     21.1590	 4529.00	 4395.12	-1571.06	 3868.20
     21.1850	 4536.00	 4397.44	-1566.38	 3870.61
     21.2110	 4532.00	 4399.77	-1572.71	 3873.03
     21.2370	 4533.00	 4402.10	-1574.05	 3875.44
     21.2630	 4525.00	 4404.44	-1584.38	 3877.85
     21.2890	 4482.00	 4406.78	-1629.73	 3880.26
     21.3150	 4496.00	 4409.13	-1618.08	 3882.68
     21.3410	 4535.00	 4411.48	-1581.43	 3885.09
     21.3670	 4561.00	 4413.84	-1557.79	 3887.50
     21.3930	 4637.00	 4416.20	-1484.15	 3889.92
     21.4190	 4571.00	 4418.57	-1552.51	 3892.33
     21.4450	 4536.00	 4420.94	-1589.88	 3894.74
     21.4710	 4608.00	 4423.31	-1520.26	 3897.15
     21.4970	 4600.00	 4425.69	-1530.64	 3899.57
     21.5230	 4542.00	 4428.07	-1591.02	 3901.98
     21.5490	 4685.00	 4430.46	-1450.41	 3904.39
     21.5750	 4608.00	 4432.85	-1529.80	 3906.80
     21.6010	 4571.00	 4435.24	-1569.19	 3909.22
     21.6270	 4563.00	 4437.64	-1579.59	 3911.63
     21.6530	 4566.00	 4440.04	-1578.99	 3914.04
     21.6790	 4482.00	 4442.45	-1665.39	 3916.45
     21.7050	 4580.00	 4444.86	-1569.80	 3918.87
     21.7310	 4617.00	 4447.27	-1535.21	 3921.28
     21.7570	 4556.00	 4449.68	-1598.63	 3923.69
     21.7830	 4623.00	 4452.10	-1534.05	 3926.10
     21.8090	 4649.00	 4454.52	-1510.47	 3928.52
     21.8350	 4631.00	 4456.95	-1530.89	 3930.93
     21.8610	 4568.00	 4459.38	-1596.32	 3933.34
     21.8870	 4542.00	 4461.81	-1624.75	 3935.75
     21.9130	 4658.00	 4464.24	-1511.19	 3938.17
     21.9390	 4629.00	 4466.68	-1542.62	 3940.58
     21.9650	 4550.00	 4469.12	-1624.06	 3942.99
     21.9910	 4632.00	 4471.56	-1544.51	 3945.40
     22.0170	 4657.00	 4474.01	-1521.95	 3947.82
     22.0430	 4598.00	 4476.45	-1583.40	 3950.23
     22.0690	 4584.00	 4478.91	-1599.85	 3952.64
     22.0950	 4643.00	 4481.36	-1543.31	 3955.05
     22.1210	 4669.00	 4483.82	-1519.76	 3957.47
     22.1470	 4595.00	 4486.28	-1596.22	 3959.88
     22.1730	 4643.00	 4488.74	-1550.68	 3962.29
     22.1990	 4709.00	 4491.20	-1487.15	 3964.70
     22.2250	 4624.00	 4493.67	-1574.61	 3967.12
     22.2510	 4617.00	 4496.14	-1584.08	 3969.53
     22.2770	 4655.00	 4498.61	-1548.56	 3971.94
     22.3030	 4682.00	 4501.08	-1524.03	 3974.35
     22.3290	 4705.00	 4503.56	-1503.51	 3976.77
     22.3550	 4630.00	 4506.04	-1580.99	 3979.18
     22.3810	 4539.00	 4508.52	-1674.47	 3981.59
     22.4070	 4521.00	 4511.01	-1694.95	 3984.00
     22.4330	 4642.00	 4513.49	-1576.44	 3986.42
     22.4590	 4694.00	 4515.98	-1526.93	 3988.83
     22.4850	 4680.00	 4518.48	-1543.42	 3991.24
     22.5110	 4668.00	 4520.97	-1557.92	 3993.65
     22.5370	 4621.00	 4523.47	-1607.41	 3996.07
     22.5630	 4602.00	 4525.96	-1628.91	 3998.48
     22.5890	 4605.00	 4528.46	-1628.41	 4000.89
     22.6150	 4663.00	 4530.97	-1572.91	 4003.31
     22.6410	 4584.00	 4533.95	-1654.89	 4005.72
     22.6670	 4595.00	 4536.46	-1646.40	 4008.13
     22.6930	 4678.00	 4538.97	-1565.91	 4010.54
     22.7190	 4595.00	 4541.48	-1651.43	 4012.96
     22.7450	 4566.00	 4544.00	-1682.94	 4015.37
     22.7710	 4733.00	 4545.30	-1517.25	 4016.33
     22.7970	 4702.00	 4545.15	-1548.09	 4016.07
     22.8230	 4662.00	 4545.00	-1587.94	 4015.81
     22.8490	 4666.00	 4544.85	-1583.80	 4015.55
     22.8750	 4687.00	 4544.71	-1562.65	 4015.29
     22.9010	 4670.00	 4544.56	-1579.51	 4015.04
     22.9270	 4669.00	 4544.42	-1580.37	 4014.78
     22.9530	 4631.00	 4544.29	-1618.23	 4014.52
     22.9790	 4618.00	 4544.15	-1631.10	 4014.26
     23.0050	 4717.00	 4544.02	-1531.96	 4014.00
     23.0310	 4582.00	 4543.89	-1666.83	 4013.74
     23.0570	 4644.00	 4543.76	-1604.70	 4013.48
     23.0830	 4685.00	 4543.63	-1563.58	 4013.22
     23.1090	 4590.00	 4543.51	-1658.45	 4012.96
     23.1350	 4634.00	 4543.38	-1614.33	 4012.70
     23.1610	 4742.00	 4543.26	-1506.21	 4012.44
     23.1870	 4632.00	 4543.15	-1616.09	 4012.18
     23.2130	 4566.00	 4543.03	-1681.98	 4011.92
     23.2390	 4564.00	 4542.92	-1683.86	 4011.66
     23.2650	 4678.00	 4542.81	-1569.75	 4011.41
     23.2910	 4622.00	 4542.70	-1625.64	 4011.15
     23.3170	 4563.00	 4542.59	-1684.54	 4010.89
     23.3430	 4702.00	 4542.49	-1545.44	 4010.63
     23.3690	 4635.00	 4542.39	-1612.33	 4010.37
     23.3950	 4616.00	 4542.29	-1631.24	 4010.11
     23.4210	 4638.00	 4542.19	-1609.14	 4009.85
     23.4470	 4532.00	 4542.10	-1715.04	 4009.59
     23.4730	 4528.00	 4542.01	-1718.95	 4009.33
     23.4990	 4645.00	 4541.92	-1601.86	 4009.07
     23.5250	 4602.00	 4541.83	-1644.78	 4008.81
     23.5510	 4559.00	 4541.75	-1687.69	 4008.55
     23.5770	 4736.00	 4541.67	-1510.61	 4008.29
     23.6030	 4658.00	 4541.59	-1588.53	 4008.03
     23.6290	 4507.00	 4541.51	-1739.46	 4007.78
     23.6550	 4564.00	 4541.44	-1682.38	 4007.52
     23.6810	 4525.00	 4541.36	-1721.31	 4007.26
     23.7070	 4744.00	 4541.30	-1502.24	 4007.00
     23.7330	 4639.00	 4541.23	-1607.17	 4006.74
     23.7590	 4640.00	 4541.17	-1606.11	 4006.48
     23.7850	 4559.00	 4541.10	-1687.05	 4006.22
     23.8110	 4627.00	 4541.05	-1618.99	 4005.96
     23.8370	 4581.00	 4540.99	-1664.94	 4005.70
     23.8630	 4544.00	 4540.94	-1701.88	 4005.44
     23.8890	 4666.00	 4540.89	-1579.83	 4005.18
     23.9150	 4683.00	 4540.84	-1562.79	 4004.92
     23.9410	 4572.00	 4540.80	-1673.74	 4004.66
     23.9670	 4537.00	 4540.75	-1708.70	 4004.40
     23.9930	 4629.00	 4540.71	-1616.66	 4004.15
     24.0190	 4593.00	 4540.68	-1652.62	 4003.89
     24.0450	 4532.00	 4540.65	-1713.59	 4003.63
     24.0710	 4557.00	 4540.62	-1688.56	 4003.37
     24.0970	 4626.00	 4540.59	-1619.53	 4003.11
     24.1230	 4589.00	 4540.56	-1656.51	 4002.85
     24.1490	 4571.00	 4540.54	-1674.49	 4002.59
     24.1750	 4558.00	 4540.53	-1687.47	 4002.33
     24.2010	 4531.00	 4540.51	-1714.46	 4002.07
     24.2270	 4617.00	 4540.50	-1628.45	 4001.81
     24.2530	 4597.00	 4540.49	-1648.44	 4001.55
     24.2790	 4527.00	 4540.49	-1718.43	 4001.29
     24.3050	 4519.00	 4540.49	-1726.43	 4001.03
     24.3310	 4558.00	 4540.49	-1687.43	 4000.77
     24.3570	 4601.00	 4540.49	-1644.44	 4000.52
     24.3830	 4645.00	 4540.50	-1600.45	 4000.26
     24.4090	 4570.00	 4540.51	-1675.46	 4000.00
     24.4350	 4480.00	 4540.53	-1765.47	 3999.74
     24.4610	 4518.00	 4540.55	-1727.49	 3999.48
     24.4870	 4532.00	 4540.57	-1713.52	 3999.22
     24.5130	 4507.00	 4540.60	-1738.54	 3998.96
     24.5390	 4483.00	 4540.63	-1762.57	 3998.70
     24.5650	 4491.00	 4540.66	-1754.61	 3998.44
     24.5910	 4469.00	 4540.21	-1776.15	 3997.69
     24.6170	 4461.00	 4539.37	-1783.31	 3996.55
     24.6430	 4481.00	 4538.53	-1762.47	 3995.40
     24.6690	 4477.00	 4537.69	-1765.64	 3994.26
     24.6950	 4444.00	 4536.86	-1797.81	 3993.11
     24.7210	 4495.00	 4536.03	-1745.98	 3991.97
     24.7470	 4587.00	 4535.21	-1653.16	 3990.83
     24.7730	 4542.00	 4534.39	-1697.34	 3989.68
     24.7990	 4486.00	 4533.58	-1752.52	 3988.54
     24.8250	 4435.00	 4532.77	-1802.71	 3987.39
     24.8510	 4451.00	 4531.96	-1785.91	 3986.25
     24.8770	 4548.00	 4531.16	-1688.11	 3985.10
     24.9030	 4527.00	 4530.36	-1708.31	 3983.96
     24.9290	 4454.00	 4529.57	-1780.52	 3982.82
     24.9550	 4406.00	 4528.79	-1827.73	 3981.67
     24.9810	 4458.00	 4528.00	-1774.95	 3980.53
     25.0070	 4564.00	 4527.23	-1668.17	 3979.38
     25.0330	 4585.00	 4526.45	-1646.40	 3978.24
     25.0590	 4428.00	 4525.69	-1802.63	 3977.10
     25.0850	 4366.00	 4524.92	-1863.87	 3975.95
     25.1110	 4392.00	 4524.17	-1837.11	 3974.81
     25.1370	 4442.00	 4523.42	-1786.36	 3973.66
     25.1630	 4403.00	 4522.67	-1824.62	 3972.52
     25.1890	 4399.00	 4521.93	-1827.88	 3971.37
     25.2150	 4457.00	 4521.19	-1769.14	 3970.23
     25.2410	 4451.00	 4520.47	-1774.41	 3969.09
     25.2670	 4410.00	 4519.74	-1814.69	 3967.94
     25.2930	 4458.00	 4519.02	-1765.97	 3966.80
     25.3190	 4478.00	 4518.31	-1745.26	 3965.65
     25.3450	 4434.00	 4517.61	-1788.55	 3964.51
     25.3710	 4478.00	 4516.91	-1743.85	 3963.37
     25.3970	 4496.00	 4516.22	-1725.16	 3962.22
     25.4230	 4471.00	 4515.53	-1749.48	 3961.08
     25.4490	 4474.00	 4514.85	-1745.80	 3959.93
     25.4750	 4470.00	 4514.18	-1749.12	 3958.79
     25.5010	 4458.00	 4513.51	-1760.46	 3957.64
     25.5270	 4573.00	 4512.85	-1644.80	 3956.50
     25.5530	 4447.00	 4512.20	-1770.15	 3955.36
     25.5790	 4540.00	 4511.55	-1676.50	 3954.21
     25.6050	 4536.00	 4510.92	-1679.86	 3953.07
     25.6310	 4496.00	 4510.29	-1719.23	 3951.92
     25.6570	 4482.00	 4509.66	-1732.61	 3950.78
     25.6830	 4450.00	 4509.05	-1764.00	 3949.63
     25.7090	 4412.00	 4508.44	-1801.39	 3948.49
     25.7350	 4480.00	 4507.85	-1732.79	 3947.35
     25.7610	 4431.00	 4507.26	-1781.20	 3946.20
     25.7870	 4605.00	 4506.67	-1606.62	 3945.06
     25.8130	 4550.00	 4506.10	-1661.05	 3943.91
     25.8390	 4498.00	 4505.54	-1712.48	 3942.77
     25.8650	 4516.00	 4504.98	-1693.93	 3941.63
     25.8910	 4521.00	 4504.44	-1688.38	 3940.48
     25.9170	 4400.00	 4503.90	-1808.85	 3939.34
     25.9430	 4608.00	 4503.37	-1600.32	 3938.19
     25.9690	 4381.00	 4502.86	-1826.80	 3937.05
     25.9950	 4484.00	 4502.47	-1723.41	 3936.02
     26.0210	 4508.00	 4502.16	-1699.10	 3935.06
     26.0470	 4512.00	 4501.85	-1694.80	 3934.10
     26.0730	 4567.00	 4501.56	-1639.51	 3933.14
     26.0990	 4555.00	 4501.28	-1651.23	 3932.18
     26.1250	 4585.00	 4501.01	-1620.96	 3931.22
     26.1510	 4476.00	 4500.76	-1729.70	 3930.26
     26.1770	 4543.00	 4500.51	-1662.46	 3929.30
     26.2030	 4576.00	 4500.28	-1629.22	 3928.34
     26.2290	 4595.00	 4500.06	-1610.00	 3927.38
     26.2550	 4426.00	 4499.85	-1778.79	 3926.42
     26.2810	 4417.00	 4499.65	-1787.60	 3925.46
     26.3070	 4465.00	 4499.47	-1739.41	 3924.50
     26.3330	 4543.00	 4499.30	-1661.24	 3923.54
     26.3590	 4490.00	 4499.14	-1714.09	 3922.58
     26.3850	 4523.00	 4499.00	-1680.95	 3921.62
     26.4110	 4508.00	 4498.87	-1695.82	 3920.66
     26.4370	 4566.00	 4498.76	-1637.71	 3919.70
     26.4630	 4441.00	 4498.66	-1762.61	 3918.74
     26.4890	 4490.00	 4498.58	-1713.53	 3917.78
     26.5150	 4503.00	 4498.52	-1700.46	 3916.82
     26.5410	 4384.00	 4498.47	-1819.41	 3915.86
     26.5670	 4515.00	 4498.43	-1688.38	 3914.90
     26.5930	 4464.00	 4498.42	-1739.36	 3913.94
     26.6190	 4584.00	 4498.42	-1619.36	 3912.98
     26.6450	 4626.00	 4498.44	-1577.38	 3912.02
     26.6710	 4578.00	 4498.48	-1625.42	 3911.06
     26.6970	 4646.00	 4498.53	-1557.48	 3910.10
     26.7230	 4609.00	 4498.61	-1594.56	 3909.14
     26.7490	 4481.00	 4498.71	-1722.65	 3908.18
     26.7750	 4484.00	 4498.82	-1719.77	 3907.23
     26.8010	 4525.00	 4498.96	-1678.91	 3906.27
     26.8270	 4531.00	 4499.12	-1673.07	 3905.31
     26.8530	 4615.00	 4499.30	-1589.25	 3904.35
     26.8790	 4616.00	 4499.51	-1588.45	 3903.39
     26.9050	 4669.00	 4499.74	-1535.68	 3902.43
     26.9310	 4601.00	 4499.99	-1603.94	 3901.47
     26.9570	 4599.00	 4500.27	-1606.21	 3900.51
     26.9830	 4516.00	 4500.57	-1689.51	 3899.55
     27.0090	 4545.00	 4500.90	-1660.84	 3898.59
     27.0350	 4655.00	 4501.25	-1551.20	 3897.63
     27.0610	 4614.00	 4501.64	-1592.58	 3896.67
     27.0870	 4583.00	 4502.05	-1623.99	 3895.71
     27.1130	 4534.00	 4502.49	-1673.44	 3894.75
     27.1390	 4547.00	 4502.96	-1660.91	 3893.79
     27.1650	 4595.00	 4503.46	-1613.41	 3892.83
     27.1910	 4586.00	 4504.00	-1622.94	 3891.87
     27.2170	 4488.00	 4504.57	-1721.51	 3890.91
     27.2430	 4505.00	 4505.17	-1705.11	 3889.95
     27.2690	 4572.00	 4505.80	-1638.75	 3888.99
     27.2950	 4568.00	 4507.14	-1644.08	 3888.03
     27.3210	 4545.00	 4507.85	-1667.79	 3887.07
     27.3470	 4494.00	 4508.60	-1719.54	 3886.11
     27.3730	 4490.00	 4509.39	-1724.33	 3885.15
     27.3990	 4509.00	 4510.22	-1706.16	 3884.19
     27.4250	 4566.00	 4511.42	-1650.36	 3883.23
     27.4510	 4564.00	 4512.33	-1653.28	 3882.27
     27.4770	 4560.00	 4513.29	-1658.24	 3881.31
     27.5030	 4573.00	 4514.30	-1646.25	 3880.35
     27.5290	 4537.00	 4515.36	-1683.31	 3879.39
     27.5550	 4601.00	 4516.46	-1620.41	 3878.43
     27.5810	 4596.00	 4517.62	-1626.57	 3877.47
     27.6070	 4608.00	 4518.83	-1615.78	 3876.51
     27.6330	 4590.00	 4520.10	-1635.04	 3875.55
     27.6590	 4503.00	 4521.42	-1723.36	 3874.59
     27.6850	 4461.00	 4522.80	-1766.74	 3873.63
     27.7110	 4556.00	 4524.24	-1673.19	 3872.67
     27.7370	 4606.00	 4525.74	-1624.69	 3871.71
     27.7630	 4612.00	 4527.31	-1620.26	 3870.75
     27.7890	 4558.00	 4528.95	-1675.90	 3869.79
     27.8150	 4559.00	 4530.66	-1676.60	 3868.83
     27.8410	 4538.00	 4532.44	-1699.38	 3867.87
     27.8670	 4517.00	 4534.29	-1722.24	 3866.91
     27.8930	 4438.00	 4536.22	-1803.17	 3865.95
     27.9190	 4573.00	 4538.23	-1670.18	 3864.99
     27.9450	 4488.00	 4540.33	-1757.28	 3864.03
     27.9710	 4529.00	 4542.51	-1718.46	 3863.07
     27.9970	 4563.00	 4544.79	-1686.73	 3862.11
     28.0230	 4562.00	 4547.16	-1690.10	 3861.15
     28.0490	 4504.00	 4549.62	-1750.57	 3860.19
     28.0750	 4614.00	 4552.19	-1643.13	 3859.23
     28.1010	 4607.00	 4554.86	-1652.80	 3858.27
     28.1270	 4633.00	 4557.64	-1629.58	 3857.31
     28.1530	 4575.00	 4559.47	-1689.42	 3855.30
     28.1790	 4518.00	 4560.12	-1747.06	 3851.97
     28.2050	 4497.00	 4560.88	-1768.83	 3848.64
     28.2310	 4593.00	 4561.78	-1673.72	 3845.31
     28.2570	 4498.00	 4562.80	-1769.75	 3841.98
     28.2830	 4594.00	 4563.97	-1674.91	 3838.65
     28.3090	 4516.00	 4565.28	-1754.22	 3835.32
     28.3350	 4527.00	 4566.74	-1744.69	 3831.99
     28.3610	 4488.00	 4568.36	-1785.30	 3828.67
     28.3870	 4670.00	 4570.14	-1605.08	 3825.34
     28.4130	 4585.00	 4572.09	-1692.03	 3822.01
     28.4390	 4614.00	 4574.21	-1665.16	 3818.68
     28.4650	 4588.00	 4576.53	-1693.47	 3815.35
     28.4910	 4647.00	 4579.03	-1636.98	 3812.02
     28.5170	 4639.00	 4581.74	-1647.68	 3808.69
     28.5430	 4627.00	 4584.66	-1662.60	 3805.36
     28.5690	 4568.00	 4587.79	-1724.74	 3802.04
     28.5950	 4579.00	 4591.16	-1717.10	 3798.71
     28.6210	 4692.00	 4594.76	-1607.71	 3795.38
     28.6470	 4586.00	 4598.61	-1717.56	 3792.05
     28.6730	 4575.00	 4602.73	-1732.67	 3788.72
     28.6990	 4676.00	 4607.11	-1636.06	 3785.39
     28.7250	 4692.00	 4611.78	-1624.73	 3782.06
     28.7510	 4523.00	 4616.74	-1798.69	 3778.73
     28.7770	 4587.00	 4622.02	-1739.96	 3775.41
     28.8030	 4632.00	 4627.61	-1700.56	 3772.08
     28.8290	 4644.00	 4633.55	-1694.49	 3768.75
     28.8550	 4689.00	 4639.83	-1655.78	 3765.42
     28.8810	 4692.00	 4646.48	-1659.43	 3762.09
     28.9070	 4688.00	 4653.52	-1670.46	 3758.76
     28.9330	 4637.00	 4660.95	-1728.90	 3755.43
     28.9590	 4621.00	 4668.80	-1752.75	 3752.11
     28.9850	 4678.00	 4677.08	-1704.03	 3748.78
     29.0110	 4591.00	 4685.82	-1799.76	 3745.45
     29.0370	 4675.00	 4695.02	-1724.96	 3742.12
     29.0630	 4592.00	 4704.71	-1817.65	 3738.79
     29.0890	 4582.00	 4714.90	-1837.85	 3735.46
     29.1150	 4722.00	 4725.63	-1708.57	 3732.13
     29.1410	 4781.00	 4736.90	-1660.84	 3728.80
     29.1670	 4739.00	 4748.73	-1714.67	 3725.48
     29.1930	 4788.00	 4761.14	-1678.09	 3722.15
     29.2190	 4732.00	 4774.16	-1747.10	 3718.82
     29.2450	 4722.00	 4787.79	-1770.74	 3715.49
     29.2710	 4718.00	 4802.06	-1789.00	 3712.16
     29.2970	 4838.00	 4816.98	-1683.92	 3708.83
     29.3230	 4798.00	 4832.56	-1739.51	 3705.50
     29.3490	 4753.00	 4848.82	-1800.77	 3702.17
     29.3750	 4790.00	 4865.76	-1780.71	 3698.85
     29.4010	 4787.00	 4883.39	-1801.34	 3695.52
     29.4270	 4852.00	 4901.72	-1754.66	 3692.19
     29.4530	 4911.00	 4920.73	-1714.67	 3688.86
     29.4790	 4914.00	 4940.42	-1731.36	 3685.53
     29.5050	 4811.00	 4960.77	-1854.72	 3682.20
     29.5310	 4966.00	 4981.77	-1720.72	 3678.87
     29.5570	 4998.00	 5003.38	-1710.33	 3675.54
     29.5830	 4986.00	 5025.57	-1744.51	 3672.22
     29.6090	 5012.00	 5048.28	-1741.22	 3668.89
     29.6350	 5014.00	 5071.45	-1762.39	 3665.56
     29.6610	 4899.00	 5095.01	-1900.96	 3662.23
     29.6870	 4973.00	 5118.88	-1850.83	 3658.90
     29.7130	 5006.00	 5142.95	-1841.90	 3655.57
     29.7390	 4988.00	 5167.12	-1884.06	 3652.24
     29.7650	 5011.00	 5191.25	-1885.19	 3648.92
     29.7910	 5044.00	 5215.19	-1876.13	 3645.59
     29.8170	 5131.00	 5238.79	-1812.74	 3642.26
     29.8430	 5162.00	 5261.88	-1804.82	 3638.93
     29.8690	 5140.00	 5284.27	-1849.22	 3635.60
     29.8950	 5169.00	 5305.77	-1841.71	 3632.27
     29.9210	 5184.00	 5326.17	-1847.11	 3628.94
     29.9470	 5084.00	 5345.26	-1966.21	 3625.61
     29.9730	 5072.00	 5362.84	-1995.79	 3622.29
     29.9990	 5187.00	 5378.71	-1896.66	 3618.96
     30.0250	 5194.00	 5392.66	-1903.60	 3615.63
     30.0510	 5190.00	 5404.51	-1919.45	 3612.30
     30.0770	 5246.00	 5414.08	-1873.03	 3608.97
     30.1030	 5219.00	 5421.25	-1907.19	 3605.64
     30.1290	 5196.00	 5425.87	-1934.82	 3602.31
     30.1550	 5282.00	 5427.87	-1850.82	 3598.98
     30.1810	 5301.00	 5427.19	-1831.14	 3595.66
     30.2070	 5254.00	 5423.80	-1874.74	 3592.33
     30.2330	 5289.00	 5417.71	-1833.65	 3589.00
     30.2590	 5287.00	 5408.96	-1826.91	 3585.67
     30.2850	 5304.00	 5397.65	-1798.60	 3582.34
     30.3110	 5260.00	 5383.87	-1828.82	 3579.01
     30.3370	 5193.00	 5367.77	-1879.72	 3575.68
     30.3630	 5199.00	 5349.50	-1855.45	 3572.35
     30.3890	 5175.00	 5329.25	-1859.20	 3569.03
     30.4150	 5164.00	 5307.21	-1848.15	 3565.70
     30.4410	 5197.00	 5283.57	-1791.52	 3562.37
     30.4670	 5152.00	 5258.56	-1811.51	 3559.04
     30.4930	 5204.00	 5232.38	-1733.32	 3555.71
     30.5190	 5204.00	 5205.22	-1706.17	 3552.38
     30.5450	 5152.00	 5177.31	-1730.25	 3549.05
     30.5710	 5151.00	 5148.81	-1702.75	 3545.73
     30.5970	 5111.00	 5119.91	-1713.85	 3542.40
     30.6230	 4999.00	 5090.77	-1796.71	 3539.07
     30.6490	 5107.00	 5061.55	-1659.50	 3535.74
     30.6750	 4939.00	 5032.38	-1798.32	 3532.41
     30.7010	 4942.00	 5003.37	-1766.31	 3529.08
     30.7270	 4996.00	 4974.64	-1683.58	 3525.75
     30.7530	 4948.00	 4946.27	-1703.22	 3522.42
     30.7790	 4881.00	 4918.35	-1742.29	 3519.10
     30.8050	 4752.00	 4890.94	-1843.89	 3515.77
     30.8310	 4805.00	 4864.09	-1764.04	 3512.44
     30.8570	 4847.00	 4837.86	-1695.80	 3509.11
     30.8830	 4744.00	 4812.26	-1773.20	 3505.78
     30.9090	 4673.00	 4787.33	-1819.28	 3502.45
     30.9350	 4693.00	 4763.09	-1775.03	 3499.12
     30.9610	 4737.00	 4739.54	-1707.49	 3495.79
     30.9870	 4675.00	 4716.70	-1746.64	 3492.47
     31.0130	 4674.00	 4694.56	-1725.50	 3489.14
     31.0390	 4544.00	 4673.12	-1834.06	 3485.81
     31.0650	 4561.00	 4652.37	-1796.32	 3482.48
     31.0910	 4629.00	 4632.31	-1708.25	 3479.15
     31.1170	 4692.00	 4612.91	-1625.86	 3475.82
     31.1430	 4429.00	 4594.18	-1870.12	 3472.49
     31.1690	 4576.00	 4576.08	-1705.03	 3469.16
     31.1950	 4517.00	 4558.62	-1746.56	 3465.84
     31.2210	 4396.00	 4541.75	-1850.70	 3462.51
     31.2470	 4525.00	 4525.48	-1705.43	 3459.18
     31.2730	 4531.00	 4509.78	-1683.73	 3455.85
     31.2990	 4482.00	 4494.64	-1717.58	 3452.52
     31.3250	 4450.00	 4480.02	-1734.97	 3449.19
     31.3510	 4415.00	 4465.93	-1755.87	 3445.86
     31.3770	 4423.00	 4452.33	-1734.27	 3442.54
     31.4030	 4362.00	 4439.21	-1782.16	 3439.21
     31.4290	 4477.00	 4426.56	-1654.50	 3435.88
     31.4550	 4362.00	 4414.35	-1757.30	 3432.55
     31.4810	 4520.00	 4402.57	-1587.52	 3429.22
     31.5070	 4455.00	 4391.21	-1641.16	 3425.89
     31.5330	 4452.00	 4380.25	-1633.19	 3422.56
     31.5590	 4453.00	 4369.67	-1621.61	 3419.23
     31.5850	 4345.00	 4359.46	-1719.40	 3415.91
     31.6110	 4377.00	 4349.61	-1677.55	 3412.58
     31.6370	 4298.00	 4340.10	-1747.05	 3409.25
     31.6630	 4242.00	 4330.92	-1793.87	 3405.92
     31.6890	 4281.00	 4322.07	-1746.01	 3402.59
     31.7150	 4323.00	 4313.52	-1695.47	 3399.26
     31.7410	 4398.00	 4305.27	-1612.22	 3395.93
     31.7670	 4324.00	 4297.31	-1678.26	 3392.60
     31.7930	 4281.00	 4289.63	-1713.58	 3389.28
     31.8190	 4314.00	 4282.22	-1673.16	 3385.95
     31.8450	 4231.00	 4275.06	-1749.01	 3382.62
     31.8710	 4297.00	 4268.16	-1676.11	 3379.29
     31.8970	 4254.00	 4261.51	-1712.45	 3375.96
     31.9230	 4156.00	 4255.09	-1804.04	 3372.63
     31.9490	 4174.00	 4248.90	-1779.85	 3369.30
     31.9750	 4261.00	 4242.94	-1686.88	 3365.97
     32.0010	 4205.00	 4237.19	-1737.14	 3362.65
     32.0270	 4229.00	 4231.66	-1707.60	 3359.32
     32.0530	 4272.00	 4226.33	-1659.28	 3355.99
     32.0790	 4228.00	 4221.21	-1698.15	 3352.66
     32.1050	 4244.00	 4216.28	-1677.23	 3349.33
     32.1310	 4263.00	 4211.55	-1653.49	 3346.00
     32.1570	 4182.00	 4207.00	-1729.95	 3342.67
     32.1830	 4181.00	 4202.64	-1726.59	 3339.34
     32.2090	 4212.00	 4198.46	-1691.41	 3336.02
     32.2350	 4213.00	 4194.46	-1686.41	 3332.69
     32.2610	 4217.00	 4190.64	-1678.59	 3329.36
     32.2870	 4233.00	 4186.99	-1658.94	 3326.03
     32.3130	 4261.00	 4183.52	-1627.46	 3322.70
     32.3390	 4227.00	 4180.21	-1658.15	 3319.37
     32.3650	 4177.00	 4177.07	-1705.01	 3316.04
     32.3910	 4206.00	 4174.09	-1673.04	 3312.72
     32.4170	 4211.00	 4171.28	-1665.23	 3309.39
     32.4430	 4219.00	 4168.63	-1654.58	 3306.06
     32.4690	 4204.00	 4166.15	-1667.10	 3302.73
     32.4950	 4154.00	 4163.83	-1714.78	 3299.40
     32.5210	 4139.00	 4161.10	-1727.04	 3295.50
     32.5470	 4121.00	 4156.94	-1740.88	 3290.01
     32.5730	 4111.00	 4152.94	-1746.88	 3284.52
     32.5990	 4131.00	 4149.10	-1723.05	 3279.03
     32.6250	 4092.00	 4145.43	-1758.38	 3273.54
     32.6510	 4093.00	 4141.92	-1753.87	 3268.05
     32.6770	 4184.00	 4138.57	-1659.52	 3262.56
     32.7030	 4147.00	 4135.40	-1693.34	 3257.07
     32.7290	 4093.00	 4132.38	-1744.33	 3251.58
     32.7550	 4124.00	 4129.54	-1710.48	 3246.09
     32.7810	 4134.00	 4126.86	-1697.81	 3240.60
     32.8070	 4139.00	 4124.36	-1690.31	 3235.11
     32.8330	 4190.00	 4122.03	-1636.98	 3229.62
     32.8590	 4146.00	 4119.88	-1678.83	 3224.13
     32.8850	 4097.00	 4117.91	-1725.86	 3218.64
     32.9110	 4159.00	 4116.12	-1662.07	 3213.15
     32.9370	 4196.00	 4114.52	-1623.47	 3207.66
     32.9630	 4184.00	 4113.11	-1634.06	 3202.17
     32.9890	 4176.00	 4111.89	-1640.84	 3196.67
     33.0150	 4176.00	 4110.87	-1639.82	 3191.19
     33.0410	 4156.00	 4110.05	-1659.00	 3185.69
     33.0670	 4110.00	 4109.44	-1704.38	 3180.20
     33.0930	 4115.00	 4109.04	-1698.98	 3174.71
     33.1190	 4143.00	 4108.85	-1670.80	 3169.22
     33.1450	 4220.00	 4108.89	-1593.83	 3163.73
     33.1710	 4064.00	 4109.15	-1750.10	 3158.24
     33.1970	 4087.00	 4109.65	-1727.60	 3152.75
     33.2230	 4120.00	 4110.39	-1695.34	 3147.26
     33.2490	 4081.00	 4111.38	-1735.32	 3141.77
     33.2750	 4054.00	 4112.62	-1763.57	 3136.28
     33.3010	 4137.00	 4114.12	-1682.07	 3130.79
     33.3270	 4073.00	 4115.90	-1747.84	 3125.30
     33.3530	 4134.00	 4117.95	-1688.90	 3119.81
     33.3790	 4095.00	 4120.30	-1730.24	 3114.32
     33.4050	 4157.00	 4122.94	-1670.88	 3108.83
     33.4310	 4206.00	 4125.88	-1624.83	 3103.34
     33.4570	 4090.00	 4129.15	-1744.10	 3097.85
     33.4830	 4158.00	 4132.75	-1679.69	 3092.36
     33.5090	 4356.00	 4136.68	-1485.63	 3086.87
     33.5350	 4246.00	 4140.97	-1599.92	 3081.38
     33.5610	 4251.00	 4145.63	-1599.57	 3075.89
     33.5870	 4127.00	 4150.66	-1728.61	 3070.40
     33.6130	 4217.00	 4156.09	-1644.04	 3064.91
     33.6390	 4212.00	 4161.93	-1654.87	 3059.42
     33.6650	 4193.00	 4168.19	-1680.14	 3053.93
     33.6910	 4361.00	 4174.89	-1518.84	 3048.44
     33.7170	 4195.00	 4182.05	-1692.00	 3042.95
     33.7430	 4294.00	 4189.69	-1600.63	 3037.46
     33.7690	 4214.00	 4197.82	-1688.76	 3031.97
     33.7950	 4256.00	 4206.46	-1655.41	 3026.48
     33.8210	 4423.00	 4215.64	-1497.59	 3020.99
     33.8470	 4366.00	 4225.38	-1564.33	 3015.50
     33.8730	 4357.00	 4235.70	-1583.65	 3010.01
     33.8990	 4380.00	 4246.63	-1571.57	 3004.52
     33.9250	 4387.00	 4258.18	-1576.12	 2999.03
     33.9510	 4285.00	 4270.39	-1690.34	 2993.54
     33.9770	 4333.00	 4283.28	-1655.23	 2988.05
     34.0030	 4343.00	 4296.89	-1658.84	 2982.56
     34.0290	 4302.00	 4311.24	-1714.19	 2977.07
     34.0550	 4278.00	 4326.37	-1753.31	 2971.58
     34.0810	 4484.00	 4342.30	-1563.25	 2966.09
     34.1070	 4473.00	 4359.08	-1591.02	 2960.60
     34.1330	 4523.00	 4376.73	-1558.68	 2955.11
     34.1590	 4481.00	 4395.30	-1619.25	 2949.62
     34.1850	 4458.00	 4414.83	-1661.77	 2944.13
     34.2110	 4419.00	 4435.35	-1721.29	 2938.64
     34.2370	 4630.00	 4456.90	-1531.85	 2933.15
     34.2630	 4705.00	 4479.54	-1479.49	 2927.66
     34.2890	 4623.00	 4503.31	-1585.25	 2922.17
     34.3150	 4524.00	 4528.25	-1709.19	 2916.68
     34.3410	 4627.00	 4554.40	-1632.35	 2911.19
     34.3670	 4635.00	 4581.83	-1651.78	 2905.70
     34.3930	 4708.00	 4610.58	-1607.52	 2900.21
     34.4190	 4706.00	 4640.69	-1639.64	 2894.72
     34.4450	 4940.00	 4672.23	-1437.18	 2889.23
     34.4710	 4940.00	 4705.25	-1470.20	 2883.74
     34.4970	 4830.00	 4739.79	-1614.74	 2878.25
     34.5230	 4999.00	 4775.91	-1481.86	 2872.76
     34.5490	 4965.00	 4813.66	-1553.61	 2867.27
     34.5750	 5022.00	 4853.10	-1536.04	 2861.78
     34.6010	 5139.00	 4894.26	-1460.21	 2856.29
     34.6270	 5195.00	 4937.19	-1447.14	 2850.80
     34.6530	 5213.00	 4981.94	-1473.89	 2845.31
     34.6790	 5184.00	 5028.55	-1549.49	 2839.81
     34.7050	 5158.00	 5077.03	-1623.98	 2834.32
     34.7310	 5257.00	 5127.42	-1575.37	 2828.83
     34.7570	 5347.00	 5179.74	-1537.68	 2823.34
     34.7830	 5385.00	 5233.98	-1553.93	 2817.85
     34.8090	 5460.00	 5290.14	-1535.09	 2812.36
     34.8350	 5610.00	 5348.19	-1443.14	 2806.87
     34.8610	 5669.00	 5408.11	-1444.06	 2801.38
     34.8870	 5689.00	 5469.82	-1485.77	 2795.89
     34.9130	 5708.00	 5533.26	-1530.20	 2790.40
     34.9390	 5805.00	 5598.30	-1498.24	 2784.91
     34.9650	 5924.00	 5664.83	-1445.77	 2779.42
     34.9910	 5927.00	 5732.68	-1510.62	 2773.93
     35.0170	 5926.00	 5801.66	-1580.60	 2768.44
     35.0430	 5990.00	 5871.52	-1586.46	 2762.95
     35.0690	 6032.00	 5942.02	-1614.97	 2757.46
     35.0950	 6151.00	 6012.85	-1566.79	 2751.97
     35.1210	 6211.00	 6083.65	-1577.60	 2746.48
     35.1470	 6196.00	 6154.04	-1662.98	 2740.99
     35.1730	 6261.00	 6223.60	-1667.55	 2735.50
     35.1990	 6354.00	 6291.86	-1642.81	 2730.01
     35.2250	 6414.00	 6358.33	-1649.28	 2724.52
     35.2510	 6398.00	 6422.47	-1729.41	 2719.03
     35.2770	 6508.00	 6483.74	-1680.69	 2713.54
     35.3030	 6654.00	 6541.57	-1592.52	 2708.05
     35.3290	 6571.00	 6595.39	-1729.34	 2702.56
     35.3550	 6530.00	 6644.62	-1819.57	 2697.07
     35.3810	 6568.00	 6688.72	-1825.67	 2691.58
     35.4070	 6573.00	 6727.17	-1859.12	 2686.09
     35.4330	 6592.00	 6759.48	-1872.43	 2680.60
     35.4590	 6578.00	 6785.22	-1912.16	 2675.11
     35.4850	 6537.00	 6804.03	-1971.97	 2669.62
     35.5110	 6415.00	 6815.62	-2105.56	 2664.13
     35.5370	 6593.00	 6819.78	-1931.73	 2658.64
     35.5630	 6521.00	 6816.41	-2000.36	 2653.15
     35.5890	 6469.00	 6805.49	-2041.43	 2647.66
     35.6150	 6590.00	 6787.08	-1902.02	 2642.17
     35.6410	 6522.00	 6761.35	-1944.30	 2636.68
     35.6670	 6406.00	 6728.56	-2027.50	 2631.19
     35.6930	 6424.00	 6689.03	-1969.98	 2625.70
     35.7190	 6482.00	 6643.17	-1866.12	 2620.21
     35.7450	 6401.00	 6591.45	-1895.40	 2614.72
     35.7710	 6278.00	 6534.36	-1961.30	 2609.23
     35.7970	 6081.00	 6472.44	-2096.38	 2603.74
     35.8230	 6027.00	 6406.26	-2084.21	 2598.25
     35.8490	 6138.00	 6336.40	-1903.35	 2592.76
     35.8750	 6003.00	 6263.42	-1965.36	 2587.27
     35.9010	 6027.00	 6187.87	-1865.82	 2581.78
     35.9270	 5817.00	 6110.31	-1998.25	 2576.29
     35.9530	 5707.00	 6031.25	-2029.19	 2570.80
     35.9790	 5591.00	 5951.15	-2065.09	 2565.31
     36.0050	 5677.00	 5870.46	-1898.41	 2559.82
     36.0310	 5577.00	 5789.60	-1917.55	 2554.33
     36.0570	 5440.00	 5708.94	-1973.89	 2548.84
     36.0830	 5275.00	 5628.79	-2058.73	 2543.35
     36.1090	 5272.00	 5549.43	-1982.38	 2537.86
     36.1350	 5117.00	 5471.13	-2059.07	 2532.37
     36.1610	 5146.00	 5394.10	-1953.04	 2526.88
     36.1870	 5103.00	 5318.50	-1920.44	 2521.39
     36.2130	 5165.00	 5244.48	-1784.43	 2515.90
     36.2390	 4934.00	 5172.17	-1943.12	 2510.41
     36.2650	 4951.00	 5101.68	-1855.62	 2504.92
     36.2910	 4935.00	 5033.04	-1802.99	 2499.43
     36.3170	 4859.00	 4966.32	-1812.27	 2493.94
     36.3430	 4692.00	 4901.55	-1914.50	 2488.44
     36.3690	 4651.00	 4838.76	-1892.71	 2482.96
     36.3950	 4470.00	 4777.92	-2012.87	 2477.46
     36.4210	 4419.00	 4719.05	-2004.99	 2471.97
     36.4470	 4374.00	 4662.11	-1993.05	 2466.48
     36.4730	 4321.00	 4607.09	-1991.03	 2460.99
     36.4990	 4390.00	 4553.93	-1868.88	 2455.50
     36.5250	 4263.00	 4502.61	-1944.56	 2450.01
     36.5510	 4259.00	 4453.08	-1899.02	 2444.52
     36.5770	 4264.00	 4405.29	-1846.24	 2439.03
     36.6030	 4209.00	 4359.18	-1855.13	 2433.54
     36.6290	 4158.00	 4314.70	-1861.65	 2428.05
     36.6550	 4039.00	 4271.80	-1937.75	 2422.56
     36.6810	 3992.00	 4230.41	-1943.36	 2417.07
     36.7070	 4002.00	 4190.47	-1893.42	 2411.58
     36.7330	 4042.00	 4151.93	-1814.87	 2406.09
     36.7590	 4009.00	 4114.72	-1810.67	 2400.60
     36.7850	 3958.00	 4078.78	-1825.72	 2395.11
     36.8110	 3838.00	 4044.05	-1910.99	 2389.62
     36.8370	 3912.00	 4010.46	-1803.41	 2384.13
     36.8630	 3916.00	 3977.97	-1766.91	 2378.64
     36.8890	 3837.00	 3946.50	-1814.44	 2373.15
     36.9150	 3839.00	 3915.99	-1781.94	 2367.66
     36.9410	 3829.00	 3886.45	-1762.39	 2362.17
     36.9670	 3803.00	 3857.71	-1759.65	 2356.68
     36.9930	 3678.00	 3829.76	-1856.70	 2351.19
     37.0190	 3771.00	 3802.55	-1736.49	 2345.70
     37.0450	 3758.00	 3776.03	-1722.97	 2340.21
     37.0710	 3701.00	 3750.15	-1754.10	 2334.72
     37.0970	 3656.00	 3724.90	-1773.84	 2329.23
     37.1230	 3644.00	 3700.17	-1761.11	 2323.74
     37.1490	 3700.00	 3675.95	-1680.90	 2318.25
     37.1750	 3707.00	 3652.22	-1650.17	 2312.76
     37.2010	 3683.00	 3628.93	-1650.88	 2307.27
     37.2270	 3628.00	 3606.07	-1683.01	 2301.78
     37.2530	 3657.00	 3583.59	-1631.54	 2296.29
     37.2790	 3612.00	 3561.50	-1654.44	 2290.80
     37.3050	 3665.00	 3539.76	-1579.70	 2285.31
     37.3310	 3697.00	 3518.36	-1526.31	 2279.82
     37.3570	 3575.00	 3497.30	-1627.24	 2274.33
     37.3830	 3542.00	 3476.56	-1639.51	 2268.84
     37.4090	 3560.00	 3458.47	-1603.42	 2265.67
     37.4350	 3477.00	 3442.53	-1670.48	 2264.35
     37.4610	 3436.00	 3426.91	-1695.86	 2263.02
     37.4870	 3388.00	 3411.60	-1728.55	 2261.70
     37.5130	 3364.00	 3396.61	-1737.55	 2260.37
     37.5390	 3451.00	 3381.92	-1635.86	 2259.05
     37.5650	 3446.00	 3367.54	-1626.48	 2257.72
     37.5910	 3389.00	 3353.47	-1669.42	 2256.40
     37.6170	 3350.00	 3339.72	-1694.66	 2255.08
     37.6430	 3329.00	 3326.27	-1702.21	 2253.75
     37.6690	 3309.00	 3313.13	-1709.07	 2252.43
     37.6950	 3238.00	 3300.30	-1767.24	 2251.10
     37.7210	 3180.00	 3287.77	-1812.71	 2249.78
     37.7470	 3242.00	 3275.54	-1738.48	 2248.45
     37.7730	 3218.00	 3263.61	-1750.55	 2247.13
     37.7990	 3140.00	 3251.97	-1816.92	 2245.80
     37.8250	 3158.00	 3240.62	-1787.57	 2244.48
     37.8510	 3165.00	 3229.56	-1769.51	 2243.16
     37.8770	 3158.00	 3218.78	-1765.72	 2241.83
     37.9030	 3134.00	 3208.27	-1779.21	 2240.51
     37.9290	 3125.00	 3198.02	-1777.97	 2239.18
     37.9550	 3113.00	 3188.04	-1779.99	 2237.86
     37.9810	 3108.00	 3178.31	-1775.26	 2236.53
     38.0070	 3091.00	 3168.83	-1782.78	 2235.21
     38.0330	 3071.00	 3159.60	-1793.54	 2233.88
     38.0590	 3121.00	 3150.60	-1734.54	 2232.56
     38.0850	 3147.00	 3141.82	-1699.77	 2231.24
     38.1110	 3140.00	 3133.27	-1698.22	 2229.91
     38.1370	 3097.00	 3124.94	-1732.88	 2228.59
     38.1630	 3158.00	 3116.81	-1663.75	 2227.26
     38.1890	 3170.00	 3108.89	-1643.83	 2225.94
     38.2150	 3063.00	 3101.16	-1743.10	 2224.61
     38.2410	 3043.00	 3093.62	-1755.57	 2223.29
     38.2670	 2997.00	 3086.27	-1794.22	 2221.96
     38.2930	 3041.00	 3079.10	-1743.04	 2220.64
     38.3190	 3079.00	 3072.10	-1698.04	 2219.32
     38.3450	 2981.00	 3065.26	-1789.21	 2217.99
     38.3710	 3003.00	 3058.59	-1760.54	 2216.67
     38.3970	 2969.00	 3052.08	-1788.03	 2215.34
     38.4230	 2872.00	 3045.72	-1878.67	 2214.02
     38.4490	 2992.00	 3039.51	-1752.46	 2212.69
     38.4750	 3028.00	 3033.44	-1710.39	 2211.37
     38.5010	 3016.00	 3027.51	-1716.46	 2210.04
     38.5270	 2983.00	 3021.71	-1743.66	 2208.72
     38.5530	 3022.00	 3016.05	-1698.99	 2207.40
     38.5790	 3054.00	 3010.51	-1661.45	 2206.07
     38.6050	 3005.00	 3005.09	-1705.04	 2204.75
     38.6310	 2977.00	 2999.79	-1727.74	 2203.42
     38.6570	 3016.00	 2994.61	-1683.55	 2202.10
     38.6830	 3032.00	 2989.54	-1662.48	 2200.77
     38.7090	 2972.00	 2984.57	-1717.52	 2199.45
     38.7350	 2902.00	 2979.72	-1782.66	 2198.12
     38.7610	 2907.00	 2974.96	-1772.91	 2196.80
     38.7870	 2981.00	 2970.31	-1694.25	 2195.48
     38.8130	 2984.00	 2965.75	-1686.69	 2194.15
     38.8390	 2983.00	 2961.28	-1683.23	 2192.83
     38.8650	 2977.00	 2956.91	-1684.86	 2191.50
     38.8910	 2867.00	 2952.63	-1790.58	 2190.18
     38.9170	 2849.00	 2948.43	-1804.38	 2188.85
     38.9430	 2910.00	 2944.32	-1739.27	 2187.53
     38.9690	 2908.00	 2940.29	-1737.24	 2186.20
     38.9950	 2989.00	 2936.34	-1652.29	 2184.88
     39.0210	 2770.00	 2932.47	-1867.42	 2183.55
     39.0470	 2913.00	 2928.68	-1720.63	 2182.23
     39.0730	 2819.00	 2924.96	-1810.91	 2180.91
     39.0990	 2877.00	 2921.32	-1749.26	 2179.58
     39.1250	 2910.00	 2917.74	-1712.69	 2178.26
     39.1510	 2921.00	 2914.24	-1698.19	 2176.93
     39.1770	 2926.00	 2910.81	-1689.75	 2175.61
     39.2030	 2919.00	 2907.44	-1693.38	 2174.28
     39.2290	 2814.00	 2904.14	-1795.08	 2172.96
     39.2550	 2864.00	 2900.90	-1741.84	 2171.63
     39.2810	 2744.00	 2897.72	-1858.67	 2170.31
     39.3070	 2750.00	 2894.61	-1849.55	 2168.99
     39.3330	 2905.00	 2891.56	-1691.50	 2167.66
     39.3590	 2861.00	 2888.56	-1732.51	 2166.34
     39.3850	 2850.00	 2885.63	-1740.58	 2165.01
     39.4110	 2857.00	 2882.75	-1730.70	 2163.69
     39.4370	 2900.00	 2879.94	-1684.88	 2162.36
     39.4630	 2875.00	 2877.17	-1707.12	 2161.04
     39.4890	 2846.00	 2874.47	-1733.41	 2159.71
     39.5150	 2808.00	 2871.81	-1768.76	 2158.39
     39.5410	 2796.00	 2869.21	-1778.16	 2157.07
     39.5670	 2850.00	 2866.67	-1721.61	 2155.74
     39.5930	 2890.00	 2864.17	-1679.12	 2154.42
     39.6190	 2807.00	 2861.73	-1759.68	 2153.09
     39.6450	 2874.00	 2859.34	-1690.29	 2151.77
     39.6710	 2873.00	 2857.00	-1688.95	 2150.44
     39.6970	 2770.00	 2854.71	-1789.66	 2149.12
     39.7230	 2828.00	 2852.48	-1729.42	 2147.79
     39.7490	 2704.00	 2850.29	-1851.23	 2146.47
     39.7750	 2786.00	 2848.21	-1767.16	 2145.15
     39.8010	 2884.00	 2846.12	-1667.07	 2143.82
     39.8270	 2904.00	 2844.08	-1645.03	 2142.50
     39.8530	 2971.00	 2842.09	-1576.03	 2141.17
     39.8790	 2881.00	 2840.14	-1664.09	 2139.85
     39.9050	 2798.00	 2838.25	-1745.19	 2138.52
     39.9310	 2756.00	 2836.40	-1785.35	 2137.20
     39.9570	 2741.00	 2834.64	-1798.58	 2135.87
     39.9830	 2765.00	 2832.89	-1772.83	 2134.55
     40.0090	 2763.00	 2831.18	-1773.13	 2133.23
     40.0350	 2784.00	 2829.53	-1750.48	 2131.90
     40.0610	 2806.00	 2827.93	-1726.87	 2130.58
     40.0870	 2792.00	 2826.37	-1739.32	 2129.25
     40.1130	 2744.00	 2824.86	-1785.81	 2127.93
     40.1390	 2768.00	 2823.41	-1760.35	 2126.60
     40.1650	 2814.00	 2822.00	-1712.95	 2125.28
     40.1910	 2797.00	 2820.64	-1728.59	 2123.95
     40.2170	 2790.00	 2819.33	-1734.28	 2122.63
     40.2430	 2796.00	 2818.08	-1727.02	 2121.31
     40.2690	 2781.00	 2816.87	-1740.82	 2119.98
     40.2950	 2754.00	 2815.72	-1766.66	 2118.66
     40.3210	 2793.00	 2814.62	-1726.56	 2117.33
     40.3470	 2787.00	 2813.57	-1731.52	 2116.01
     40.3730	 2750.00	 2812.58	-1767.52	 2114.68
     40.3990	 2792.00	 2811.64	-1724.58	 2113.36
     40.4250	 2784.00	 2810.75	-1731.70	 2112.03
     40.4510	 2775.00	 2809.92	-1739.87	 2110.71
     40.4770	 2815.00	 2809.15	-1699.10	 2109.39
     40.5030	 2787.00	 2808.44	-1726.39	 2108.06
     40.5290	 2741.00	 2807.79	-1771.73	 2106.74
     40.5550	 2756.00	 2807.19	-1756.14	 2105.41
     40.5810	 2820.00	 2806.66	-1691.61	 2104.09
     40.6070	 2825.00	 2806.19	-1686.14	 2102.76
     40.6330	 2796.00	 2805.78	-1714.73	 2101.44
     40.6590	 2842.00	 2805.44	-1668.39	 2100.11
     40.6850	 2826.00	 2805.17	-1684.12	 2098.79
     40.7110	 2779.00	 2804.96	-1730.91	 2097.46
     40.7370	 2766.00	 2804.83	-1743.77	 2096.14
     40.7630	 2791.00	 2804.77	-1718.71	 2094.82
     40.7890	 2886.00	 2804.77	-1623.72	 2093.49
     40.8150	 2888.00	 2804.86	-1621.81	 2092.17
     40.8410	 2768.00	 2805.02	-1741.97	 2090.84
     40.8670	 2830.00	 2805.27	-1680.21	 2089.52
     40.8930	 2876.00	 2805.59	-1634.53	 2088.19
     40.9190	 2856.00	 2806.00	-1654.94	 2086.87
     40.9450	 2853.00	 2806.49	-1658.44	 2085.54
     40.9710	 2881.00	 2807.08	-1631.02	 2084.22
     40.9970	 2841.00	 2807.82	-1671.76	 2082.96
     41.0230	 2869.00	 2808.73	-1644.67	 2081.77
     41.0490	 2804.00	 2809.73	-1710.68	 2080.59
     41.0750	 2823.00	 2810.84	-1692.79	 2079.40
     41.1010	 2838.00	 2812.06	-1679.00	 2078.22
     41.1270	 2787.00	 2813.38	-1731.32	 2077.03
     41.1530	 2801.00	 2814.81	-1718.75	 2075.85
     41.1790	 2775.00	 2816.36	-1746.30	 2074.66
     41.2050	 2825.00	 2818.02	-1697.97	 2073.48
     41.2310	 2861.00	 2819.81	-1663.76	 2072.29
     41.2570	 2866.00	 2821.73	-1660.68	 2071.11
     41.2830	 2874.00	 2823.78	-1654.73	 2069.92
     41.3090	 2883.00	 2825.97	-1647.92	 2068.73
     41.3350	 2828.00	 2828.30	-1705.25	 2067.55
     41.3610	 2876.00	 2830.78	-1659.72	 2066.36
     41.3870	 2802.00	 2833.41	-1736.36	 2065.18
     41.4130	 2886.00	 2836.20	-1655.15	 2063.99
     41.4390	 2861.00	 2839.16	-1683.10	 2062.81
     41.4650	 2872.00	 2842.29	-1675.23	 2061.62
     41.4910	 2830.00	 2845.59	-1720.54	 2060.44
     41.5170	 2876.00	 2849.09	-1678.03	 2059.25
     41.5430	 2826.00	 2852.77	-1731.72	 2058.07
     41.5690	 2921.00	 2856.66	-1640.61	 2056.88
     41.5950	 2875.00	 2860.76	-1690.70	 2055.70
     41.6210	 2781.00	 2865.07	-1789.02	 2054.51
     41.6470	 2853.00	 2869.61	-1721.56	 2053.33
     41.6730	 2839.00	 2874.39	-1740.33	 2052.14
     41.6990	 2844.00	 2879.41	-1740.35	 2050.96
     41.7250	 2899.00	 2884.69	-1690.63	 2049.77
     41.7510	 2896.00	 2890.23	-1699.17	 2048.58
     41.7770	 2895.00	 2896.05	-1705.99	 2047.40
     41.8030	 2861.00	 2902.15	-1746.10	 2046.21
     41.8290	 2787.00	 2908.56	-1826.51	 2045.03
     41.8550	 2832.00	 2915.28	-1788.23	 2043.84
     41.8810	 2939.00	 2922.33	-1688.27	 2042.66
     41.9070	 2941.00	 2929.71	-1693.65	 2041.47
     41.9330	 2833.00	 2937.44	-1809.39	 2040.29
     41.9590	 2863.00	 2945.54	-1787.49	 2039.10
     41.9850	 2930.00	 2954.02	-1728.97	 2037.92
     42.0110	 2874.00	 2962.89	-1793.84	 2036.73
     42.0370	 2882.00	 2972.18	-1795.12	 2035.55
     42.0630	 2944.00	 2981.88	-1742.83	 2034.36
     42.0890	 2935.00	 2992.03	-1761.98	 2033.18
     42.1150	 2924.00	 3002.63	-1783.58	 2031.99
     42.1410	 2991.00	 3013.71	-1727.65	 2030.80
     42.1670	 2935.00	 3025.26	-1795.21	 2029.62
     42.1930	 2896.00	 3037.32	-1846.27	 2028.43
     42.2190	 2925.00	 3049.90	-1829.84	 2027.25
     42.2450	 2893.00	 3063.00	-1874.94	 2026.06
     42.2710	 2957.00	 3076.64	-1824.59	 2024.88
     42.2970	 2883.00	 3090.84	-1912.79	 2023.69
     42.3230	 2847.00	 3105.60	-1963.55	 2022.51
     42.3490	 2912.00	 3120.94	-1913.88	 2021.32
     42.3750	 2892.00	 3136.85	-1949.80	 2020.14
     42.4010	 2945.00	 3153.35	-1913.29	 2018.95
     42.4270	 2887.00	 3170.42	-1988.37	 2017.77
     42.4530	 2777.00	 3188.08	-2116.02	 2016.58
     42.4790	 2859.00	 3206.31	-2052.25	 2015.40
     42.5050	 2904.00	 3225.09	-2026.04	 2014.21
     42.5310	 2877.00	 3244.42	-2072.37	 2013.02
     42.5570	 2897.00	 3264.26	-2072.21	 2011.84
     42.5830	 2965.00	 3284.59	-2024.54	 2010.65
     42.6090	 2962.00	 3305.37	-2048.31	 2009.47
     42.6350	 2940.00	 3326.54	-2091.48	 2008.28
     42.6610	 3034.00	 3348.04	-2018.99	 2007.10
     42.6870	 3059.00	 3369.82	-2015.77	 2005.91
     42.7130	 3095.00	 3391.79	-2001.74	 2004.73
     42.7390	 3064.00	 3413.87	-2054.81	 2003.54
     42.7650	 3131.00	 3435.94	-2009.89	 2002.36
     42.7910	 3266.00	 3457.91	-1896.85	 2001.17
     42.8170	 3366.00	 3479.64	-1818.58	 1999.99
     42.8430	 3465.00	 3501.00	-1740.94	 1998.80
     42.8690	 3482.00	 3521.84	-1744.78	 1997.62
     42.8950	 3550.00	 3542.01	-1696.96	 1996.43
     42.9210	 3652.00	 3561.36	-1614.31	 1995.25
     42.9470	 3736.00	 3579.71	-1548.66	 1994.06
     42.9730	 3867.00	 3596.90	-1434.85	 1992.87
     42.9990	 3966.00	 3612.76	-1351.71	 1991.69
     43.0250	 3975.00	 3627.13	-1357.08	 1990.50
     43.0510	 4059.00	 3639.85	-1285.80	 1989.32
     43.0770	 4178.00	 3650.77	-1177.72	 1988.13
     43.1030	 4184.00	 3659.77	-1180.72	 1986.95
     43.1290	 4205.00	 3666.73	-1166.67	 1985.76
     43.1550	 4212.00	 3671.54	-1164.49	 1984.58
     43.1810	 4250.00	 3674.15	-1129.10	 1983.39
     43.2070	 4370.00	 3674.51	-1009.46	 1982.21
     43.2330	 4412.00	 3672.59	 -965.54	 1981.02
     43.2590	 4397.00	 3668.40	 -976.35	 1979.84
     43.2850	 4418.00	 3661.98	 -948.92	 1978.65
     43.3110	 4406.00	 3653.38	 -952.32	 1977.47
     43.3370	 4323.00	 3642.68	-1024.63	 1976.28
     43.3630	 4272.00	 3630.00	-1062.94	 1975.09
     43.3890	 4202.00	 3615.44	-1118.39	 1973.91
     43.4150	 4260.00	 3599.15	-1044.10	 1972.72
     43.4410	 4173.00	 3581.29	-1113.23	 1971.54
     43.4670	 4076.00	 3562.00	-1190.95	 1970.35
     43.4930	 4074.00	 3541.46	-1172.41	 1969.17
     43.5190	 4035.00	 3519.83	-1189.78	 1967.98
     43.5450	 3975.00	 3497.28	-1227.23	 1966.80
     43.5710	 3825.00	 3473.97	-1353.92	 1965.61
     43.5970	 3601.00	 3450.06	-1554.01	 1964.43
     43.6230	 3635.00	 3425.69	-1495.64	 1963.24
     43.6490	 3565.00	 3401.01	-1540.96	 1962.06
     43.6750	 3447.00	 3376.15	-1634.10	 1960.87
     43.7010	 3348.00	 3351.22	-1708.17	 1959.69
     43.7270	 3362.00	 3326.33	-1669.28	 1958.50
     43.7530	 3217.00	 3301.58	-1789.53	 1957.31
     43.7790	 3164.00	 3277.06	-1818.01	 1956.13
     43.8050	 3104.00	 3252.83	-1853.78	 1954.94
     43.8310	 3038.00	 3228.96	-1895.91	 1953.76
     43.8570	 2951.00	 3205.51	-1959.45	 1952.57
     43.8830	 2983.00	 3182.51	-1904.46	 1951.39
     43.9090	 2871.00	 3160.01	-1993.95	 1950.20
     43.9350	 2858.00	 3138.03	-1984.97	 1949.02
     43.9610	 2831.00	 3116.59	-1990.54	 1947.83
     43.9870	 2779.00	 3095.72	-2021.67	 1946.65
     44.0130	 2764.00	 3075.42	-2016.36	 1945.46
     44.0390	 2708.00	 3055.69	-2052.64	 1944.28
     44.0650	 2802.00	 3036.55	-1939.49	 1943.09
     44.0910	 2770.00	 3017.98	-1952.93	 1941.91
     44.1170	 2728.00	 2999.98	-1976.93	 1940.72
     44.1430	 2658.00	 2982.55	-2029.50	 1939.54
     44.1690	 2690.00	 2965.68	-1980.62	 1938.35
     44.1950	 2741.00	 2949.35	-1913.30	 1937.16
     44.2210	 2610.00	 2933.56	-2028.50	 1935.98
     44.2470	 2702.00	 2918.28	-1921.23	 1934.79
     44.2730	 2677.00	 2903.51	-1931.46	 1933.61
     44.2990	 2674.00	 2889.23	-1920.18	 1932.42
     44.3250	 2588.00	 2875.43	-1992.38	 1931.24
     44.3510	 2713.00	 2862.09	-1854.03	 1930.05
     44.3770	 2684.00	 2849.19	-1870.14	 1928.87
     44.4030	 2679.00	 2836.72	-1862.67	 1927.68
     44.4290	 2695.00	 2824.67	-1834.62	 1926.50
     44.4550	 2783.00	 2813.02	-1734.96	 1925.31
     44.4810	 2736.00	 2801.75	-1770.69	 1924.13
     44.5070	 2693.00	 2790.85	-1802.79	 1922.94
     44.5330	 2643.00	 2780.30	-1842.25	 1921.76
     44.5590	 2567.00	 2770.10	-1908.05	 1920.57
     44.5850	 2705.00	 2760.23	-1760.17	 1919.38
     44.6110	 2712.00	 2751.12	-1744.07	 1918.65
     44.6370	 2654.00	 2742.39	-1793.33	 1917.99
     44.6630	 2607.00	 2733.94	-1831.89	 1917.32
     44.6890	 2627.00	 2725.77	-1803.72	 1916.66
     44.7150	 2626.00	 2717.87	-1796.82	 1915.99
     44.7410	 2674.00	 2710.23	-1741.18	 1915.33
     44.7670	 2648.00	 2702.83	-1759.78	 1914.66
     44.7930	 2665.00	 2695.67	-1735.62	 1914.00
     44.8190	 2629.00	 2688.74	-1764.68	 1913.33
     44.8450	 2534.00	 2682.02	-1852.96	 1912.67
     44.8710	 2507.00	 2675.51	-1873.46	 1912.00
     44.8970	 2569.00	 2669.20	-1805.15	 1911.34
     44.9230	 2617.00	 2663.08	-1751.03	 1910.67
     44.9490	 2540.00	 2657.15	-1822.10	 1910.00
     44.9750	 2494.00	 2651.39	-1862.34	 1909.34
     45.0010	 2523.00	 2645.81	-1827.75	 1908.67
     45.0270	 2552.00	 2640.38	-1793.33	 1908.01
     45.0530	 2460.00	 2635.11	-1880.06	 1907.34
     45.0790	 2589.00	 2629.99	-1745.94	 1906.68
     45.1050	 2558.00	 2625.02	-1771.97	 1906.01
     45.1310	 2566.00	 2620.19	-1759.13	 1905.35
     45.1570	 2572.00	 2615.48	-1748.43	 1904.68
     45.1830	 2561.00	 2610.91	-1754.85	 1904.02
     45.2090	 2484.00	 2606.46	-1827.40	 1903.35
     45.2350	 2466.00	 2602.12	-1841.07	 1902.69
     45.2610	 2538.00	 2597.90	-1764.85	 1902.02
     45.2870	 2445.00	 2593.79	-1853.74	 1901.36
     45.3130	 2465.00	 2589.79	-1829.73	 1900.69
     45.3390	 2505.00	 2585.88	-1785.83	 1900.03
     45.3650	 2525.00	 2582.08	-1762.02	 1899.36
     45.3910	 2487.00	 2578.37	-1796.31	 1898.69
     45.4170	 2491.00	 2574.74	-1788.69	 1898.03
     45.4430	 2559.00	 2571.21	-1717.16	 1897.36
     45.4690	 2546.00	 2567.76	-1726.71	 1896.70
     45.4950	 2547.00	 2564.39	-1722.34	 1896.03
     45.5210	 2510.00	 2561.10	-1756.04	 1895.37
     45.5470	 2425.00	 2557.88	-1837.83	 1894.70
     45.5730	 2463.00	 2554.74	-1796.68	 1894.04
     45.5990	 2506.00	 2551.67	-1750.61	 1893.37
     45.6250	 2498.00	 2548.66	-1755.61	 1892.71
     45.6510	 2475.00	 2545.72	-1775.67	 1892.04
     45.6770	 2470.00	 2542.84	-1777.79	 1891.38
     45.7030	 2461.00	 2540.03	-1783.97	 1890.71
     45.7290	 2481.00	 2537.27	-1761.22	 1890.05
     45.7550	 2521.00	 2534.57	-1718.52	 1889.38
     45.7810	 2456.00	 2531.93	-1780.87	 1888.72
     45.8070	 2431.00	 2529.33	-1803.28	 1888.05
     45.8330	 2466.00	 2526.79	-1765.74	 1887.38
     45.8590	 2481.00	 2524.30	-1748.25	 1886.72
     45.8850	 2472.00	 2521.86	-1754.81	 1886.05
     45.9110	 2487.00	 2519.47	-1737.41	 1885.39
     45.9370	 2426.00	 2517.12	-1796.06	 1884.72
     45.9630	 2441.00	 2514.81	-1778.76	 1884.06
     45.9890	 2477.00	 2512.55	-1740.49	 1883.39
     46.0150	 2419.00	 2510.33	-1796.27	 1882.73
     46.0410	 2378.00	 2508.14	-1835.09	 1882.06
     46.0670	 2462.00	 2506.00	-1748.95	 1881.40
     46.0930	 2489.00	 2503.89	-1719.84	 1880.73
     46.1190	 2505.00	 2501.83	-1701.77	 1880.07
     46.1450	 2496.00	 2499.79	-1708.74	 1879.40
     46.1710	 2379.00	 2497.79	-1823.74	 1878.74
     46.1970	 2362.00	 2495.83	-1838.77	 1878.07
     46.2230	 2445.00	 2493.89	-1753.84	 1877.41
     46.2490	 2424.00	 2491.99	-1772.94	 1876.74
     46.2750	 2473.00	 2490.12	-1722.06	 1876.07
     46.3010	 2422.00	 2488.28	-1771.22	 1875.41
     46.3270	 2458.00	 2486.46	-1733.41	 1874.74
     46.3530	 2431.00	 2484.68	-1758.62	 1874.08
     46.3790	 2402.00	 2482.92	-1785.87	 1873.41
     46.4050	 2530.00	 2481.19	-1656.13	 1872.75
     46.4310	 2463.00	 2479.48	-1721.43	 1872.08
     46.4570	 2424.00	 2477.80	-1758.75	 1871.42
     46.4830	 2405.00	 2476.15	-1776.09	 1870.75
     46.5090	 2385.00	 2474.52	-1794.46	 1870.09
     46.5350	 2468.00	 2472.91	-1709.86	 1869.42
     46.5610	 2478.00	 2471.32	-1698.27	 1868.76
     46.5870	 2417.00	 2469.76	-1757.71	 1868.09
     46.6130	 2453.00	 2468.22	-1720.17	 1867.43
     46.6390	 2483.00	 2466.70	-1688.65	 1866.76
     46.6650	 2358.00	 2465.20	-1812.15	 1866.10
     46.6910	 2517.00	 2463.72	-1651.67	 1865.43
     46.7170	 2436.00	 2462.26	-1731.21	 1864.76
     46.7430	 2379.00	 2460.82	-1786.77	 1864.10
     46.7690	 2397.00	 2459.40	-1767.34	 1863.43
     46.7950	 2412.00	 2457.99	-1750.94	 1862.77
     46.8210	 2478.00	 2456.61	-1683.55	 1862.10
     46.8470	 2432.00	 2455.24	-1728.18	 1861.44
     46.8730	 2412.00	 2453.89	-1746.83	 1860.77
     46.8990	 2426.00	 2452.55	-1731.50	 1860.11
     46.9250	 2464.00	 2451.23	-1692.18	 1859.44
     46.9510	 2355.00	 2449.93	-1799.87	 1858.78
     46.9770	 2362.00	 2448.64	-1791.58	 1858.11
     47.0030	 2466.00	 2447.37	-1686.31	 1857.45
     47.0290	 2490.00	 2446.11	-1661.05	 1856.78
     47.0550	 2534.00	 2444.86	-1615.81	 1856.12
     47.0810	 2345.00	 2443.64	-1803.58	 1855.45
     47.1070	 2454.00	 2442.42	-1693.37	 1854.79
     47.1330	 2439.00	 2441.22	-1707.16	 1854.12
     47.1590	 2469.00	 2440.03	-1675.98	 1853.45
     47.1850	 2467.00	 2438.85	-1676.80	 1852.79
     47.2110	 2489.00	 2437.69	-1653.64	 1852.12
     47.2370	 2490.00	 2436.54	-1651.49	 1851.46
     47.2630	 2446.00	 2435.40	-1694.35	 1850.79
     47.2890	 2540.00	 2434.28	-1599.22	 1850.13
     47.3150	 2426.00	 2433.17	-1712.11	 1849.46
     47.3410	 2476.00	 2432.06	-1661.01	 1848.80
     47.3670	 2485.00	 2430.97	-1650.92	 1848.13
     47.3930	 2517.00	 2429.89	-1617.84	 1847.47
     47.4190	 2476.00	 2428.82	-1657.77	 1846.80
     47.4450	 2458.00	 2427.77	-1674.71	 1846.14
     47.4710	 2439.00	 2426.72	-1692.67	 1845.47
     47.4970	 2447.00	 2425.68	-1683.63	 1844.81
     47.5230	 2398.00	 2424.66	-1731.60	 1844.14
     47.5490	 2421.00	 2423.64	-1707.59	 1843.48
     47.5750	 2416.00	 2422.64	-1711.58	 1842.81
     47.6010	 2412.00	 2421.64	-1714.59	 1842.15
     47.6270	 2442.00	 2420.65	-1683.60	 1841.48
     47.6530	 2477.00	 2419.68	-1647.62	 1840.81
     47.6790	 2451.00	 2418.71	-1672.66	 1840.15
     47.7050	 2478.00	 2417.76	-1644.70	 1839.48
     47.7310	 2420.00	 2416.81	-1701.75	 1838.82
     47.7570	 2417.00	 2415.87	-1703.82	 1838.15
     47.7830	 2452.00	 2414.94	-1667.89	 1837.49
     47.8090	 2481.00	 2414.02	-1637.97	 1836.82
     47.8350	 2431.00	 2413.11	-1687.06	 1836.16
     47.8610	 2428.00	 2412.21	-1689.15	 1835.49
     47.8870	 2429.00	 2411.31	-1687.26	 1834.83
     47.9130	 2415.00	 2410.43	-1700.38	 1834.16
     47.9390	 2436.00	 2409.55	-1678.50	 1833.50
     47.9650	 2493.00	 2408.69	-1620.63	 1832.83
     47.9910	 2521.00	 2407.83	-1591.77	 1832.17
     48.0170	 2456.00	 2407.27	-1656.22	 1831.79
     48.0430	 2459.00	 2407.05	-1653.00	 1831.75
     48.0690	 2440.00	 2406.84	-1671.79	 1831.71
     48.0950	 2448.00	 2406.64	-1663.59	 1831.67
     48.1210	 2494.00	 2406.45	-1617.39	 1831.63
     48.1470	 2461.00	 2406.26	-1650.21	 1831.59
     48.1730	 2435.00	 2406.09	-1676.03	 1831.55
     48.1990	 2431.00	 2405.92	-1679.86	 1831.51
     48.2250	 2465.00	 2405.76	-1645.70	 1831.46
     48.2510	 2508.00	 2405.60	-1602.55	 1831.42
     48.2770	 2482.00	 2405.46	-1628.40	 1831.38
     48.3030	 2476.00	 2405.32	-1634.27	 1831.34
     48.3290	 2514.00	 2405.19	-1596.14	 1831.30
     48.3550	 2495.00	 2405.07	-1615.01	 1831.26
     48.3810	 2456.00	 2404.95	-1653.90	 1831.22
     48.4070	 2486.00	 2404.85	-1623.79	 1831.18
     48.4330	 2518.00	 2404.75	-1591.69	 1831.14
     48.4590	 2505.00	 2404.66	-1604.60	 1831.10
     48.4850	 2508.00	 2404.57	-1601.52	 1831.05
     48.5110	 2556.00	 2404.50	-1553.44	 1831.01
     48.5370	 2549.00	 2404.43	-1560.38	 1830.97
     48.5630	 2467.00	 2404.37	-1642.32	 1830.93
     48.5890	 2445.00	 2404.32	-1664.26	 1830.89
     48.6150	 2457.00	 2404.27	-1652.22	 1830.85
     48.6410	 2464.00	 2404.23	-1645.18	 1830.81
     48.6670	 2525.00	 2404.20	-1584.15	 1830.77
     48.6930	 2472.00	 2404.18	-1637.13	 1830.73
     48.7190	 2460.00	 2404.17	-1649.11	 1830.69
     48.7450	 2453.00	 2404.16	-1656.11	 1830.64
     48.7710	 2485.00	 2404.16	-1624.11	 1830.60
     48.7970	 2480.00	 2404.17	-1629.11	 1830.56
     48.8230	 2474.00	 2404.18	-1635.13	 1830.52
     48.8490	 2509.00	 2404.21	-1600.15	 1830.48
     48.8750	 2452.00	 2404.24	-1657.19	 1830.44
     48.9010	 2461.00	 2404.28	-1648.22	 1830.40
     48.9270	 2411.00	 2404.33	-1698.27	 1830.36
     48.9530	 2456.00	 2404.31	-1653.26	 1830.32
     48.9790	 2448.00	 2404.38	-1661.32	 1830.27
     49.0050	 2436.00	 2404.42	-1673.36	 1830.23
     49.0310	 2435.00	 2404.49	-1674.44	 1830.19
     49.0570	 2524.00	 2404.58	-1585.53	 1830.15
     49.0830	 2464.00	 2404.68	-1645.62	 1830.11
     49.1090	 2522.00	 2404.78	-1587.73	 1830.07
     49.1350	 2506.00	 2404.89	-1603.84	 1830.03
     49.1610	 2508.00	 2405.01	-1601.96	 1829.99
     49.1870	 2467.00	 2405.14	-1643.09	 1829.95
     49.2130	 2501.00	 2405.28	-1609.23	 1829.91
     49.2390	 2512.00	 2405.43	-1598.37	 1829.86
     49.2650	 2518.00	 2405.58	-1592.53	 1829.82
     49.2910	 2482.00	 2405.75	-1628.69	 1829.78
     49.3170	 2566.00	 2405.92	-1544.86	 1829.74
     49.3430	 2647.00	 2406.10	-1464.04	 1829.70
     49.3690	 2486.00	 2406.29	-1625.24	 1829.66
     49.3950	 2476.00	 2406.49	-1635.43	 1829.62
     49.4210	 2438.00	 2406.70	-1673.64	 1829.58
     49.4470	 2538.00	 2406.92	-1573.86	 1829.54
     49.4730	 2419.00	 2407.14	-1693.09	 1829.50
     49.4990	 2590.00	 2407.38	-1522.33	 1829.45
     49.5250	 2487.00	 2407.63	-1625.57	 1829.41
     49.5510	 2484.00	 2407.89	-1628.83	 1829.37
     49.5770	 2386.00	 2408.15	-1727.10	 1829.33
     49.6030	 2512.00	 2408.43	-1601.38	 1829.29
     49.6290	 2544.00	 2408.72	-1569.67	 1829.25
     49.6550	 2433.00	 2409.02	-1680.96	 1829.21
     49.6810	 2491.00	 2409.33	-1623.27	 1829.17
     49.7070	 2473.00	 2409.65	-1641.59	 1829.13
     49.7330	 2479.00	 2409.98	-1635.92	 1829.08
     49.7590	 2560.00	 2410.32	-1555.27	 1829.04
     49.7850	 2536.00	 2410.68	-1579.62	 1829.00
     49.8110	 2532.00	 2411.04	-1583.99	 1828.96
     49.8370	 2588.00	 2411.42	-1528.36	 1828.92
     49.8630	 2635.00	 2411.81	-1481.75	 1828.88
     49.8890	 2491.00	 2412.21	-1626.16	 1828.84
     49.9150	 2631.00	 2412.62	-1486.57	 1828.80
     49.9410	 2535.00	 2413.05	-1583.00	 1828.76
     49.9670	 2460.00	 2413.49	-1658.44	 1828.72
     49.9930	 2613.00	 2413.94	-1505.89	 1828.67
     50.0190	 2653.00	 2414.41	-1466.36	 1828.63
     50.0450	 2552.00	 2414.89	-1567.84	 1828.59
     50.0710	 2568.00	 2415.39	-1552.33	 1828.55
     50.0970	 2504.00	 2415.90	-1616.84	 1828.51
     50.1230	 2520.00	 2416.46	-1601.41	 1828.51
     50.1490	 2566.00	 2417.04	-1555.99	 1828.51
     50.1750	 2553.00	 2417.64	-1569.58	 1828.51
     50.2010	 2523.00	 2418.25	-1600.19	 1828.51
     50.2270	 2518.00	 2418.87	-1605.82	 1828.51
     50.2530	 2533.00	 2419.52	-1591.46	 1828.51
     50.2790	 2524.00	 2420.18	-1601.12	 1828.51
     50.3050	 2571.00	 2420.86	-1554.80	 1828.51
     50.3310	 2531.00	 2421.55	-1595.50	 1828.51
     50.3570	 2588.00	 2422.26	-1539.21	 1828.51
     50.3830	 2629.00	 2423.00	-1498.94	 1828.51
     50.4090	 2636.00	 2423.75	-1492.69	 1828.51
     50.4350	 2599.00	 2424.52	-1530.46	 1828.51
     50.4610	 2568.00	 2425.31	-1562.25	 1828.51
     50.4870	 2523.00	 2426.12	-1608.06	 1828.51
     50.5130	 2544.00	 2426.95	-1587.89	 1828.51
     50.5390	 2558.00	 2427.80	-1574.75	 1828.51
     50.5650	 2566.00	 2428.67	-1567.62	 1828.51
     50.5910	 2666.00	 2429.57	-1468.52	 1828.51
     50.6170	 2701.00	 2430.49	-1434.44	 1828.51
     50.6430	 2635.00	 2431.44	-1501.38	 1828.51
     50.6690	 2539.00	 2432.40	-1598.35	 1828.51
     50.6950	 2543.00	 2433.40	-1595.34	 1828.51
     50.7210	 2619.00	 2434.42	-1520.36	 1828.51
     50.7470	 2555.00	 2435.46	-1585.41	 1828.51
     50.7730	 2529.00	 2436.54	-1612.48	 1828.51
     50.7990	 2562.00	 2437.64	-1580.59	 1828.51
     50.8250	 2585.00	 2438.77	-1558.72	 1828.51
     50.8510	 2636.00	 2439.93	-1508.88	 1828.51
     50.8770	 2651.00	 2441.12	-1495.07	 1828.51
     50.9030	 2654.00	 2442.35	-1493.29	 1828.51
     50.9290	 2669.00	 2443.60	-1479.55	 1828.51
     50.9550	 2657.00	 2444.89	-1492.84	 1828.51
     50.9810	 2655.00	 2446.21	-1496.16	 1828.51
     51.0070	 2682.00	 2447.57	-1470.52	 1828.51
     51.0330	 2648.00	 2448.97	-1505.92	 1828.51
     51.0590	 2584.00	 2450.40	-1571.35	 1828.51
     51.0850	 2555.00	 2451.88	-1601.82	 1828.51
     51.1110	 2581.00	 2453.39	-1577.34	 1828.51
     51.1370	 2669.00	 2454.95	-1490.89	 1828.51
     51.1630	 2663.00	 2456.55	-1498.49	 1828.51
     51.1890	 2618.00	 2458.19	-1545.14	 1828.51
     51.2150	 2639.00	 2459.88	-1525.83	 1828.51
     51.2410	 2589.00	 2461.62	-1577.56	 1828.51
     51.2670	 2606.00	 2463.41	-1562.35	 1828.51
     51.2930	 2629.00	 2465.24	-1541.19	 1828.51
     51.3190	 2618.00	 2467.13	-1554.08	 1828.51
     51.3450	 2619.00	 2469.08	-1555.02	 1828.51
     51.3710	 2703.00	 2471.08	-1473.03	 1828.51
     51.3970	 2691.00	 2473.14	-1487.09	 1828.51
     51.4230	 2649.00	 2475.26	-1531.21	 1828.51
     51.4490	 2597.00	 2477.44	-1585.39	 1828.51
     51.4750	 2598.00	 2479.69	-1586.64	 1828.51
     51.5010	 2633.00	 2482.01	-1553.95	 1828.51
     51.5270	 2619.00	 2484.39	-1570.34	 1828.51
     51.5530	 2629.00	 2486.85	-1562.80	 1828.51
     51.5790	 2625.00	 2489.38	-1569.33	 1828.51
     51.6050	 2648.00	 2492.00	-1548.94	 1828.51
     51.6310	 2720.00	 2494.69	-1479.63	 1828.51
     51.6570	 2748.00	 2497.46	-1454.41	 1828.51
     51.6830	 2714.00	 2500.33	-1491.27	 1828.51
     51.7090	 2704.00	 2503.28	-1504.23	 1828.51
     51.7350	 2757.00	 2506.33	-1454.27	 1828.51
     51.7610	 2661.00	 2509.47	-1553.42	 1828.51
     51.7870	 2627.00	 2512.72	-1590.67	 1828.51
     51.8130	 2736.00	 2516.07	-1485.02	 1828.51
     51.8390	 2690.00	 2519.53	-1534.48	 1828.51
     51.8650	 2671.00	 2523.11	-1557.05	 1828.51
     51.8910	 2694.00	 2526.80	-1537.75	 1828.51
     51.9170	 2700.00	 2530.62	-1535.56	 1828.51
     51.9430	 2686.00	 2534.56	-1553.51	 1828.51
     51.9690	 2667.00	 2538.64	-1576.59	 1828.51
     51.9950	 2698.00	 2542.86	-1549.80	 1828.51
     52.0210	 2768.00	 2547.22	-1484.16	 1828.51
     52.0470	 2715.00	 2551.72	-1541.67	 1828.51
     52.0730	 2759.00	 2556.39	-1502.34	 1828.51
     52.0990	 2723.00	 2561.22	-1543.16	 1828.51
     52.1250	 2733.00	 2566.21	-1538.16	 1828.51
     52.1510	 2791.00	 2571.38	-1485.33	 1828.51
     52.1770	 2710.00	 2576.73	-1571.68	 1828.51
     52.2030	 2639.00	 2582.27	-1648.22	 1828.51
     52.2290	 2705.00	 2588.01	-1587.96	 1828.51
     52.2550	 2743.00	 2593.95	-1555.90	 1828.51
     52.2810	 2623.00	 2600.11	-1682.05	 1828.51
     52.3070	 2729.00	 2606.48	-1582.43	 1828.51
     52.3330	 2731.00	 2613.08	-1587.03	 1828.51
     52.3590	 2724.00	 2619.92	-1600.87	 1828.51
     52.3850	 2742.00	 2627.01	-1589.95	 1828.51
     52.4110	 2762.00	 2634.35	-1577.29	 1828.51
     52.4370	 2712.00	 2641.95	-1634.89	 1828.51
     52.4630	 2775.00	 2649.82	-1579.77	 1828.51
     52.4890	 2694.00	 2657.97	-1668.92	 1828.51
     52.5150	 2720.00	 2666.42	-1651.36	 1828.51
     52.5410	 2743.00	 2675.16	-1637.10	 1828.51
     52.5670	 2801.00	 2684.21	-1588.15	 1828.51
     52.5930	 2884.00	 2693.57	-1514.52	 1828.51
     52.6190	 2816.00	 2703.25	-1592.20	 1828.51
     52.6450	 2710.00	 2713.27	-1708.22	 1828.51
     52.6710	 2734.00	 2723.62	-1694.57	 1828.51
     52.6970	 2793.00	 2734.31	-1646.26	 1828.51
     52.7230	 2719.00	 2745.35	-1731.29	 1828.51
     52.7490	 2766.00	 2756.73	-1695.68	 1828.51
     52.7750	 2787.00	 2768.47	-1686.41	 1828.51
     52.8010	 2783.00	 2780.55	-1702.49	 1828.51
     52.8270	 2747.00	 2792.98	-1750.92	 1828.51
     52.8530	 2757.00	 2805.75	-1753.70	 1828.51
     52.8790	 2734.00	 2818.93	-1789.88	 1828.59
     52.9050	 2701.00	 2832.48	-1836.42	 1828.70
     52.9310	 2771.00	 2846.33	-1780.27	 1828.82
     52.9570	 2798.00	 2860.47	-1767.41	 1828.93
     52.9830	 2781.00	 2874.88	-1798.82	 1829.05
     53.0090	 2779.00	 2889.53	-1815.47	 1829.16
     53.0350	 2814.00	 2904.38	-1795.32	 1829.28
     53.0610	 2816.00	 2919.40	-1808.35	 1829.39
     53.0870	 2827.00	 2934.55	-1812.50	 1829.51
     53.1130	 2812.00	 2949.78	-1842.72	 1829.62
     53.1390	 2816.00	 2965.02	-1853.97	 1829.74
     53.1650	 2821.00	 2980.22	-1864.17	 1829.85
     53.1910	 2851.00	 2995.32	-1849.26	 1829.97
     53.2170	 2812.00	 3010.22	-1903.17	 1830.08
     53.2430	 2790.00	 3024.87	-1939.81	 1830.20
     53.2690	 2813.00	 3039.16	-1931.11	 1830.31
     53.2950	 2814.00	 3053.02	-1943.97	 1830.42
     53.3210	 2800.00	 3066.36	-1971.30	 1830.54
     53.3470	 2834.00	 3079.07	-1950.02	 1830.65
     53.3730	 2859.00	 3091.07	-1937.02	 1830.77
     53.3990	 2838.00	 3102.27	-1969.22	 1830.88
     53.4250	 2837.00	 3112.57	-1980.52	 1831.00
     53.4510	 2810.00	 3121.89	-2016.84	 1831.11
     53.4770	 2774.00	 3130.15	-2061.10	 1831.23
     53.5030	 2804.00	 3137.28	-2038.23	 1831.34
     53.5290	 2838.00	 3143.22	-2010.17	 1831.46
     53.5550	 2866.00	 3147.92	-1986.87	 1831.57
     53.5810	 2904.00	 3151.34	-1952.29	 1831.69
     53.6070	 2847.00	 3153.46	-2011.41	 1831.80
     53.6330	 2776.00	 3154.27	-2083.21	 1831.92
     53.6590	 2803.00	 3153.76	-2055.70	 1832.03
     53.6850	 2802.00	 3151.96	-2054.90	 1832.15
     53.7110	 2801.00	 3148.90	-2052.84	 1832.26
     53.7370	 2793.00	 3144.61	-2056.56	 1832.38
     53.7630	 2763.00	 3139.17	-2081.12	 1832.49
     53.7890	 2796.00	 3132.63	-2041.58	 1832.61
     53.8150	 2794.00	 3125.07	-2036.01	 1832.72
     53.8410	 2798.00	 3116.56	-2023.51	 1832.84
     53.8670	 2825.00	 3107.21	-1987.15	 1832.95
     53.8930	 2851.00	 3097.09	-1951.03	 1833.07
     53.9190	 2839.00	 3086.30	-1952.24	 1833.18
     53.9450	 2822.00	 3074.93	-1957.88	 1833.30
     53.9710	 2805.00	 3063.09	-1963.03	 1833.41
     53.9970	 2787.00	 3050.85	-1968.79	 1833.52
     54.0230	 2774.00	 3038.30	-1969.25	 1833.64
     54.0490	 2808.00	 3025.54	-1922.48	 1833.75
     54.0750	 2751.00	 3012.63	-1966.57	 1833.87
     54.1010	 2772.00	 2999.65	-1932.59	 1833.98
     54.1270	 2812.00	 2986.66	-1879.61	 1834.10
     54.1530	 2845.00	 2973.73	-1833.68	 1834.21
     54.1790	 2846.00	 2960.91	-1819.86	 1834.33
     54.2050	 2732.00	 2948.26	-1921.20	 1834.44
     54.2310	 2696.00	 2935.80	-1944.75	 1834.56
     54.2570	 2738.00	 2923.59	-1890.53	 1834.67
     54.2830	 2760.00	 2911.65	-1856.59	 1834.79
     54.3090	 2737.00	 2900.00	-1867.95	 1834.90
     54.3350	 2706.00	 2888.69	-1887.63	 1835.02
     54.3610	 2772.00	 2877.71	-1810.66	 1835.13
     54.3870	 2775.00	 2867.09	-1797.04	 1835.25
     54.4130	 2703.00	 2856.84	-1858.79	 1835.36
     54.4390	 2767.00	 2846.97	-1784.92	 1835.48
     54.4650	 2704.00	 2837.49	-1838.43	 1835.59
     54.4910	 2758.00	 2828.39	-1775.33	 1835.71
     54.5170	 2706.00	 2819.67	-1818.62	 1835.82
     54.5430	 2741.00	 2811.35	-1775.30	 1835.94
     54.5690	 2699.00	 2803.42	-1809.37	 1836.05
     54.5950	 2691.00	 2795.87	-1809.82	 1836.17
     54.6210	 2728.00	 2788.71	-1765.65	 1836.28
     54.6470	 2678.00	 2781.92	-1808.86	 1836.40
     54.6730	 2690.00	 2775.50	-1790.45	 1836.51
     54.6990	 2800.00	 2769.45	-1674.40	 1836.63
     54.7250	 2735.00	 2763.76	-1733.71	 1836.74
     54.7510	 2801.00	 2758.43	-1662.38	 1836.85
     54.7770	 2730.00	 2753.45	-1728.40	 1836.97
     54.8030	 2665.00	 2748.81	-1788.76	 1837.08
     54.8290	 2672.00	 2744.51	-1777.45	 1837.20
     54.8550	 2745.00	 2740.53	-1700.48	 1837.31
     54.8810	 2652.00	 2736.89	-1789.83	 1837.43
     54.9070	 2739.00	 2733.56	-1699.51	 1837.54
     54.9330	 2665.00	 2730.55	-1770.49	 1837.66
     54.9590	 2666.00	 2727.84	-1766.79	 1837.77
     54.9850	 2752.00	 2725.44	-1678.39	 1837.89
     55.0110	 2601.00	 2723.34	-1827.29	 1838.00
     55.0370	 2801.00	 2721.53	-1625.48	 1838.12
     55.0630	 2699.00	 2720.02	-1725.97	 1838.23
     55.0890	 2831.00	 2718.80	-1592.74	 1838.35
     55.1150	 2771.00	 2717.86	-1651.80	 1838.46
     55.1410	 2777.00	 2717.20	-1645.15	 1838.58
     55.1670	 2709.00	 2716.83	-1712.77	 1838.69
     55.1930	 2683.00	 2716.73	-1738.68	 1838.81
     55.2190	 2716.00	 2716.91	-1705.86	 1838.92
     55.2450	 2724.00	 2717.37	-1698.32	 1839.04
     55.2710	 2776.00	 2718.11	-1647.06	 1839.15
     55.2970	 2712.00	 2719.12	-1712.07	 1839.27
     55.3230	 2722.00	 2720.42	-1703.36	 1839.38
     55.3490	 2693.00	 2721.99	-1733.93	 1839.50
     55.3750	 2768.00	 2723.84	-1660.78	 1839.61
     55.4010	 2813.00	 2725.97	-1617.92	 1839.73
     55.4270	 2757.00	 2728.39	-1676.33	 1839.84
     55.4530	 2808.00	 2731.09	-1628.04	 1839.96
     55.4790	 2771.00	 2734.09	-1668.03	 1840.07
     55.5050	 2662.00	 2737.38	-1780.32	 1840.19
     55.5310	 2711.00	 2740.97	-1734.91	 1840.30
     55.5570	 2795.00	 2744.86	-1654.80	 1840.41
     55.5830	 2754.00	 2749.06	-1700.00	 1840.53
     55.6090	 2748.00	 2753.57	-1710.52	 1840.64
     55.6350	 2775.00	 2758.41	-1688.36	 1840.76
     55.6610	 2790.00	 2763.57	-1678.52	 1840.87
     55.6870	 2841.00	 2769.07	-1633.02	 1840.99
     55.7130	 2860.00	 2774.91	-1619.86	 1841.10
     55.7390	 2849.00	 2781.10	-1637.05	 1841.22
     55.7650	 2834.00	 2787.65	-1658.59	 1841.33
     55.7910	 2854.00	 2794.56	-1645.51	 1841.45
     55.8170	 2825.00	 2801.86	-1681.80	 1841.56
     55.8430	 2739.00	 2809.54	-1775.48	 1841.68
     55.8690	 2776.00	 2817.61	-1746.55	 1841.79
     55.8950	 2843.00	 2826.09	-1688.04	 1841.91
     55.9210	 2820.00	 2834.99	-1719.94	 1842.02
     55.9470	 2891.00	 2844.32	-1658.26	 1842.14
     55.9730	 2888.00	 2854.08	-1671.03	 1842.25
     55.9990	 2925.00	 2864.30	-1644.25	 1842.37
     56.0250	 2890.00	 2874.98	-1689.93	 1842.48
     56.0510	 2795.00	 2886.13	-1796.08	 1842.60
     56.0770	 2913.00	 2897.76	-1689.71	 1842.71
     56.1030	 3019.00	 2909.89	-1595.84	 1842.83
     56.1290	 2965.00	 2922.52	-1662.47	 1842.94
     56.1550	 2900.00	 2935.67	-1740.62	 1843.06
     56.1810	 2942.00	 2949.33	-1712.28	 1843.17
     56.2070	 3037.00	 2963.53	-1631.48	 1843.29
     56.2330	 3016.00	 2978.26	-1667.20	 1843.40
     56.2590	 2947.00	 2993.53	-1751.47	 1843.52
     56.2850	 2991.00	 3009.33	-1723.28	 1843.63
     56.3110	 3035.00	 3025.68	-1695.63	 1843.74
     56.3370	 3008.00	 3042.57	-1739.51	 1843.86
     56.3630	 2995.00	 3059.98	-1769.93	 1843.97
     56.3890	 3040.00	 3077.92	-1742.86	 1844.09
     56.4150	 3065.00	 3096.36	-1736.31	 1844.20
     56.4410	 3088.00	 3115.29	-1732.24	 1844.32
     56.4670	 3076.00	 3134.69	-1763.64	 1844.43
     56.4930	 3154.00	 3154.52	-1705.46	 1844.55
     56.5190	 3108.00	 3174.75	-1771.69	 1844.66
     56.5450	 3079.00	 3195.33	-1821.27	 1844.78
     56.5710	 3100.00	 3216.22	-1821.16	 1844.89
     56.5970	 3187.00	 3237.34	-1755.29	 1845.01
     56.6230	 3151.00	 3259.06	-1813.00	 1845.52
     56.6490	 3184.00	 3280.95	-1801.89	 1846.11
     56.6750	 3215.00	 3302.86	-1792.80	 1846.71
     56.7010	 3198.00	 3324.70	-1831.64	 1847.30
     56.7270	 3121.00	 3346.36	-1930.31	 1847.89
     56.7530	 3126.00	 3367.74	-1946.68	 1848.48
     56.7790	 3160.00	 3388.71	-1933.66	 1849.07
     56.8050	 3189.00	 3409.16	-1925.11	 1849.67
     56.8310	 3244.00	 3428.95	-1889.90	 1850.26
     56.8570	 3239.00	 3447.96	-1913.90	 1850.85
     56.8830	 3234.00	 3466.03	-1936.98	 1851.44
     56.9090	 3297.00	 3483.04	-1890.99	 1852.03
     56.9350	 3273.00	 3498.86	-1930.80	 1852.62
     56.9610	 3355.00	 3513.34	-1863.29	 1853.22
     56.9870	 3308.00	 3526.37	-1923.31	 1853.81
     57.0130	 3249.00	 3537.83	-1993.77	 1854.40
     57.0390	 3247.00	 3547.61	-2005.55	 1854.99
     57.0650	 3277.00	 3555.62	-1983.57	 1855.58
     57.0910	 3244.00	 3561.79	-2022.74	 1856.18
     57.1170	 3245.00	 3566.07	-2026.01	 1856.77
     57.1430	 3296.00	 3568.40	-1977.35	 1857.36
     57.1690	 3362.00	 3568.78	-1911.72	 1857.95
     57.1950	 3294.00	 3567.19	-1978.14	 1858.54
     57.2210	 3313.00	 3563.67	-1955.62	 1859.13
     57.2470	 3415.00	 3558.26	-1848.20	 1859.73
     57.2730	 3357.00	 3551.00	-1898.95	 1860.32
     57.2990	 3334.00	 3541.98	-1912.93	 1860.91
     57.3250	 3334.00	 3531.29	-1902.24	 1861.50
     57.3510	 3347.00	 3519.03	-1876.98	 1862.09
     57.3770	 3343.00	 3505.32	-1867.27	 1862.69
     57.4030	 3379.00	 3490.28	-1816.23	 1863.28
     57.4290	 3391.00	 3474.04	-1787.99	 1863.87
     57.4550	 3330.00	 3456.73	-1831.68	 1864.46
     57.4810	 3263.00	 3438.50	-1880.44	 1865.05
     57.5070	 3289.00	 3419.46	-1835.41	 1865.65
     57.5330	 3341.00	 3399.76	-1763.71	 1866.24
     57.5590	 3241.00	 3379.53	-1843.47	 1866.83
     57.5850	 3279.00	 3358.88	-1784.82	 1867.42
     57.6110	 3225.00	 3337.93	-1817.88	 1868.01
     57.6370	 3277.00	 3316.79	-1744.74	 1868.60
     57.6630	 3223.00	 3295.57	-1777.51	 1869.20
     57.6890	 3309.00	 3274.34	-1670.29	 1869.79
     57.7150	 3173.00	 3253.21	-1785.15	 1870.38
     57.7410	 3174.00	 3232.23	-1763.17	 1870.97
     57.7670	 3142.00	 3211.48	-1774.42	 1871.56
     57.7930	 3196.00	 3191.01	-1699.96	 1872.16
     57.8190	 3075.00	 3170.88	-1800.83	 1872.75
     57.8450	 3174.00	 3151.13	-1682.07	 1873.34
     57.8710	 3181.00	 3131.79	-1655.74	 1873.93
     57.8970	 3121.00	 3112.90	-1696.84	 1874.52
     57.9230	 3197.00	 3094.47	-1602.41	 1875.11
     57.9490	 3059.00	 3076.53	-1722.47	 1875.71
     57.9750	 3144.00	 3059.08	-1620.03	 1876.30
     58.0010	 3179.00	 3042.15	-1568.10	 1876.89
     58.0270	 3090.00	 3025.73	-1640.68	 1877.48
     58.0530	 3053.00	 3009.83	-1661.78	 1878.07
     58.0790	 3041.00	 2994.45	-1658.40	 1878.67
     58.1050	 3065.00	 2979.59	-1619.53	 1879.26
     58.1310	 3084.00	 2965.23	-1586.18	 1879.85
     58.1570	 3029.00	 2951.38	-1627.32	 1880.44
     58.1830	 3031.00	 2938.02	-1611.97	 1881.03
     58.2090	 3033.00	 2925.15	-1597.10	 1881.62
     58.2350	 3087.00	 2912.76	-1530.71	 1882.22
     58.2610	 2999.00	 2900.83	-1606.78	 1882.81
     58.2870	 2985.00	 2889.36	-1609.30	 1883.40
     58.3130	 3001.00	 2878.33	-1582.27	 1883.99
     58.3390	 2973.00	 2867.73	-1599.67	 1884.58
     58.3650	 2996.00	 2857.54	-1566.49	 1885.18
     58.3910	 3019.00	 2847.76	-1533.71	 1885.77
     58.4170	 3024.00	 2838.38	-1519.32	 1886.36
     58.4430	 2968.00	 2829.37	-1566.31	 1886.95
     58.4690	 2944.00	 2820.73	-1581.67	 1887.54
     58.4950	 2954.00	 2812.44	-1563.39	 1888.13
     58.5210	 2938.00	 2804.50	-1571.45	 1888.73
     58.5470	 2896.00	 2796.89	-1605.84	 1889.32
     58.5730	 2899.00	 2789.61	-1595.55	 1889.91
     58.5990	 2904.00	 2782.63	-1583.57	 1890.50
     58.6250	 2807.00	 2775.95	-1673.89	 1891.09
     58.6510	 2817.00	 2769.56	-1657.50	 1891.69
     58.6770	 2846.00	 2763.44	-1622.39	 1892.28
     58.7030	 2850.00	 2757.60	-1612.54	 1892.87
     58.7290	 2847.00	 2752.02	-1609.96	 1893.46
     58.7550	 2870.00	 2746.68	-1581.63	 1894.05
     58.7810	 2930.00	 2741.56	-1516.51	 1894.62
     58.8070	 2843.00	 2736.46	-1598.41	 1894.97
     58.8330	 2783.00	 2731.59	-1653.54	 1895.32
     58.8590	 2791.00	 2726.94	-1640.89	 1895.67
     58.8850	 2793.00	 2722.50	-1634.44	 1896.02
     58.9110	 2837.00	 2718.26	-1586.20	 1896.38
     58.9370	 2871.00	 2714.22	-1548.16	 1896.73
     58.9630	 2904.00	 2710.37	-1511.31	 1897.08
     58.9890	 2850.00	 2706.70	-1561.65	 1897.43
     59.0150	 2796.00	 2703.22	-1612.16	 1897.78
     59.0410	 2844.00	 2699.90	-1560.85	 1898.13
     59.0670	 2789.00	 2696.76	-1612.71	 1898.49
     59.0930	 2767.00	 2693.78	-1631.73	 1898.84
     59.1190	 2765.00	 2690.96	-1630.91	 1899.19
     59.1450	 2720.00	 2688.29	-1673.24	 1899.54
     59.1710	 2709.00	 2685.78	-1681.72	 1899.89
     59.1970	 2791.00	 2683.41	-1597.35	 1900.24
     59.2230	 2839.00	 2681.18	-1547.12	 1900.60
     59.2490	 2813.00	 2679.09	-1571.04	 1900.95
     59.2750	 2843.00	 2677.13	-1539.08	 1901.30
     59.3010	 2793.00	 2675.31	-1587.26	 1901.65
     59.3270	 2814.00	 2673.62	-1564.56	 1902.00
     59.3530	 2857.00	 2672.05	-1520.00	 1902.35
     59.3790	 2774.00	 2670.61	-1601.55	 1902.71
     59.4050	 2761.00	 2669.28	-1613.23	 1903.06
     59.4310	 2793.00	 2668.08	-1580.03	 1903.41
     59.4570	 2701.00	 2666.99	-1670.94	 1903.76
     59.4830	 2753.00	 2666.02	-1617.96	 1904.11
     59.5090	 2849.00	 2665.16	-1521.10	 1904.46
     59.5350	 2715.00	 2664.41	-1654.35	 1904.82
     59.5610	 2711.00	 2663.77	-1657.71	 1905.17
     59.5870	 2782.00	 2663.23	-1586.18	 1905.52
     59.6130	 2793.00	 2662.81	-1574.75	 1905.87
     59.6390	 2714.00	 2662.48	-1653.43	 1906.22
     59.6650	 2797.00	 2662.27	-1570.21	 1906.57
     59.6910	 2765.00	 2662.15	-1602.10	 1906.93
     59.7170	 2758.00	 2662.14	-1609.09	 1907.28
     59.7430	 2820.00	 2662.23	-1547.18	 1907.63
     59.7690	 2812.00	 2662.15	-1555.09	 1907.70
     59.7950	 2776.00	 2661.92	-1590.87	 1907.54
     59.8210	 2824.00	 2661.80	-1542.74	 1907.37
     59.8470	 2845.00	 2661.78	-1521.72	 1907.21
     59.8730	 2717.00	 2661.85	-1649.80	 1907.04
     59.8990	 2871.00	 2662.03	-1495.98	 1906.87
     59.9250	 2778.00	 2662.31	-1589.26	 1906.71
     59.9510	 2822.00	 2662.69	-1545.63	 1906.54
     59.9770	 2724.00	 2663.17	-1644.12	 1906.38
     60.0030	 2863.00	 2663.75	-1505.70	 1906.21
     60.0290	 2788.00	 2664.44	-1581.39	 1906.05
     60.0550	 2719.00	 2665.23	-1651.18	 1905.88
     60.0810	 2751.00	 2666.12	-1620.07	 1905.72
     60.1070	 2733.00	 2667.12	-1639.07	 1905.55
     60.1330	 2839.00	 2668.23	-1534.18	 1905.38
     60.1590	 2803.00	 2669.44	-1571.39	 1905.22
     60.1850	 2815.00	 2670.77	-1560.71	 1905.05
     60.2110	 2743.00	 2672.20	-1634.15	 1904.89
     60.2370	 2832.00	 2673.75	-1546.70	 1904.72
     60.2630	 2715.00	 2675.41	-1665.36	 1904.56
     60.2890	 2762.00	 2677.19	-1620.14	 1904.39
     60.3150	 2808.00	 2679.09	-1576.03	 1904.22
     60.3410	 2783.00	 2681.11	-1603.05	 1904.06
     60.3670	 2700.00	 2683.25	-1688.19	 1903.89
     60.3930	 2724.00	 2685.52	-1666.46	 1903.73
     60.4190	 2787.00	 2687.91	-1605.86	 1903.56
     60.4450	 2707.00	 2690.44	-1688.39	 1903.40
     60.4710	 2833.00	 2693.10	-1565.05	 1903.23
     60.4970	 2697.00	 2695.90	-1703.85	 1903.07
     60.5230	 2743.00	 2698.85	-1660.79	 1902.90
     60.5490	 2786.00	 2701.93	-1620.88	 1902.73
     60.5750	 2771.00	 2705.17	-1639.12	 1902.57
     60.6010	 2651.00	 2708.56	-1762.51	 1902.40
     60.6270	 2690.00	 2712.11	-1727.06	 1902.24
     60.6530	 2666.00	 2715.82	-1754.77	 1902.07
     60.6790	 2736.00	 2719.70	-1688.65	 1901.91
     60.7050	 2785.00	 2723.75	-1643.70	 1901.74
     60.7310	 2724.00	 2727.98	-1708.92	 1901.57
     60.7570	 2700.00	 2732.39	-1737.33	 1901.41
     60.7830	 2762.00	 2736.99	-1679.93	 1901.24
     60.8090	 2706.00	 2741.78	-1740.73	 1901.08
     60.8350	 2689.00	 2746.77	-1762.72	 1900.91
     60.8610	 2681.00	 2751.98	-1775.92	 1900.75
     60.8870	 2681.00	 2757.39	-1781.34	 1900.58
     60.9130	 2723.00	 2763.03	-1744.98	 1900.42
     60.9390	 2733.00	 2768.90	-1740.85	 1900.25
     60.9650	 2699.00	 2775.01	-1780.95	 1900.08
     60.9910	 2710.00	 2781.36	-1776.30	 1899.92
     61.0170	 2720.00	 2787.97	-1772.91	 1899.75
     61.0430	 2746.00	 2794.83	-1753.78	 1899.59
     61.0690	 2749.00	 2801.98	-1757.92	 1899.42
     61.0950	 2724.00	 2809.41	-1790.35	 1899.26
     61.1210	 2714.00	 2817.13	-1808.07	 1899.09
     61.1470	 2706.00	 2825.15	-1824.10	 1898.92
     61.1730	 2744.00	 2833.49	-1794.43	 1898.76
     61.1990	 2757.00	 2842.15	-1790.10	 1898.59
     61.2250	 2733.00	 2851.16	-1823.10	 1898.43
     61.2510	 2725.00	 2860.51	-1840.46	 1898.26
     61.2770	 2725.00	 2870.23	-1850.18	 1898.10
     61.3030	 2737.00	 2880.33	-1848.27	 1897.93
     61.3290	 2779.00	 2890.81	-1816.76	 1897.77
     61.3550	 2797.00	 2901.70	-1809.65	 1897.60
     61.3810	 2772.00	 2913.01	-1845.96	 1897.43
     61.4070	 2767.00	 2924.76	-1862.71	 1897.27
     61.4330	 2761.00	 2936.95	-1880.90	 1897.10
     61.4590	 2783.00	 2949.61	-1871.56	 1896.94
     61.4850	 2792.00	 2962.75	-1875.69	 1896.77
     61.5110	 2790.00	 2975.86	-1890.81	 1896.61
     61.5370	 2823.00	 2990.01	-1871.96	 1896.44
     61.5630	 2758.00	 3004.69	-1951.63	 1896.27
     61.5890	 2736.00	 3019.65	-1988.59	 1896.11
     61.6150	 2760.00	 3035.43	-1980.38	 1895.94
     61.6410	 2740.00	 3051.79	-2016.74	 1895.78
     61.6670	 2782.00	 3068.74	-1991.68	 1895.61
     61.6930	 2838.00	 3086.29	-1953.24	 1895.45
     61.7190	 2819.00	 3104.47	-1990.42	 1895.28
     61.7450	 2797.00	 3123.28	-2031.23	 1895.12
     61.7710	 2820.00	 3142.73	-2027.68	 1894.95
     61.7970	 2907.00	 3162.84	-1960.79	 1894.78
     61.8230	 2774.00	 3183.62	-2114.56	 1894.62
     61.8490	 2746.00	 3205.06	-2164.00	 1894.45
     61.8750	 2852.00	 3227.17	-2080.11	 1894.29
     61.9010	 2878.00	 3249.95	-2076.90	 1894.12
     61.9270	 2893.00	 3273.40	-2085.35	 1893.96
     61.9530	 2898.00	 3297.51	-2104.46	 1893.79
     61.9790	 2811.00	 3322.27	-2216.22	 1893.62
     62.0050	 2856.00	 3347.66	-2196.61	 1893.46
     62.0310	 2909.00	 3373.66	-2169.61	 1893.29
     62.0570	 2918.00	 3400.23	-2187.18	 1893.13
     62.0830	 2953.00	 3427.34	-2179.29	 1892.96
     62.1090	 3027.00	 3454.95	-2132.90	 1892.80
     62.1350	 2978.00	 3483.00	-2209.94	 1892.63
     62.1610	 3064.00	 3511.42	-2152.36	 1892.47
     62.1870	 3169.00	 3540.15	-2076.09	 1892.30
     62.2130	 3197.00	 3569.10	-2077.04	 1892.13
     62.2390	 3130.00	 3598.17	-2173.12	 1891.97
     62.2650	 3250.00	 3627.27	-2082.21	 1891.80
     62.2910	 3216.00	 3656.27	-2145.22	 1891.64
     62.3170	 3443.00	 3685.06	-1947.01	 1891.47
     62.3430	 3400.00	 3713.49	-2018.44	 1891.31
     62.3690	 3448.00	 3741.42	-1998.36	 1891.14
     62.3950	 3535.00	 3768.69	-1938.64	 1890.98
     62.4210	 3709.00	 3795.15	-1791.10	 1890.81
     62.4470	 3738.00	 3820.62	-1787.56	 1890.64
     62.4730	 3861.00	 3844.93	-1688.87	 1890.48
     62.4990	 4079.00	 3867.91	-1493.85	 1890.31
     62.5250	 4170.00	 3889.38	-1424.33	 1890.15
     62.5510	 4225.00	 3909.18	-1389.13	 1889.98
     62.5770	 4347.00	 3927.14	-1285.09	 1889.82
     62.6030	 4384.00	 3943.12	-1264.07	 1889.65
     62.6290	 4465.00	 3956.97	-1196.91	 1889.48
     62.6550	 4686.00	 3968.56	 -987.51	 1889.32
     62.6810	 4629.00	 3977.79	-1053.73	 1889.15
     62.7070	 4728.00	 3984.56	 -961.51	 1888.99
     62.7330	 4802.00	 3988.82	 -891.77	 1888.82
     62.7590	 4898.00	 3990.52	 -797.46	 1888.66
     62.7850	 4828.00	 3989.64	 -866.58	 1888.49
     62.8110	 5044.00	 3986.18	 -647.13	 1888.33
     62.8370	 5117.00	 3980.18	 -568.13	 1888.16
     62.8630	 5092.00	 3971.69	 -584.64	 1887.99
     62.8890	 4972.00	 3960.79	 -693.74	 1887.83
     62.9150	 4944.00	 3947.57	 -708.52	 1887.66
     62.9410	 5012.00	 3932.16	 -625.10	 1887.50
     62.9670	 4969.00	 3914.67	 -650.61	 1887.33
     62.9930	 4820.00	 3895.26	 -780.20	 1887.17
     63.0190	 4783.00	 3874.08	 -796.02	 1887.00
     63.0450	 4651.00	 3851.29	 -905.24	 1886.83
     63.0710	 4574.00	 3827.07	 -958.01	 1886.67
     63.0970	 4406.00	 3801.58	-1100.53	 1886.50
     63.1230	 4346.00	 3775.00	-1133.94	 1886.34
     63.1490	 4322.00	 3747.49	-1130.43	 1886.17
     63.1750	 4214.00	 3719.21	-1210.15	 1886.01
     63.2010	 4048.00	 3690.33	-1347.28	 1885.84
     63.2270	 3919.00	 3660.99	-1446.94	 1885.68
     63.2530	 3865.00	 3631.34	-1471.28	 1885.51
     63.2790	 3630.00	 3601.50	-1676.45	 1885.34
     63.3050	 3596.00	 3571.60	-1680.55	 1885.18
     63.3310	 3470.00	 3541.75	-1776.69	 1885.01
     63.3570	 3462.00	 3512.04	-1754.99	 1884.85
     63.3830	 3375.00	 3482.58	-1812.52	 1884.68
     63.4090	 3256.00	 3453.42	-1902.37	 1884.52
     63.4350	 3173.00	 3424.66	-1956.60	 1884.35
     63.4610	 3186.00	 3396.34	-1915.28	 1884.18
     63.4870	 3049.00	 3368.52	-2024.47	 1884.02
     63.5130	 3007.00	 3341.24	-2039.19	 1883.85
     63.5390	 2985.00	 3314.54	-2034.48	 1883.69
     63.5650	 2900.00	 3288.44	-2093.38	 1883.52
     63.5910	 2888.00	 3262.97	-2079.91	 1883.36
     63.6170	 2918.00	 3238.14	-2025.08	 1883.19
     63.6430	 2895.00	 3213.96	-2023.91	 1883.03
     63.6690	 2800.00	 3190.44	-2095.39	 1882.86
     63.6950	 2784.00	 3167.59	-2088.54	 1882.69
     63.7210	 2813.00	 3145.41	-2037.35	 1882.53
     63.7470	 2816.00	 3123.88	-2012.82	 1882.36
     63.7730	 2775.00	 3103.00	-2032.94	 1882.20
     63.7990	 2767.00	 3082.77	-2020.71	 1882.03
     63.8250	 2756.00	 3063.17	-2012.11	 1881.87
     63.8510	 2688.00	 3044.19	-2061.14	 1881.70
     63.8770	 2723.00	 3025.83	-2007.77	 1881.53
     63.9030	 2760.00	 3008.06	-1953.00	 1881.37
     63.9290	 2717.00	 2990.86	-1978.81	 1881.20
     63.9550	 2704.00	 2974.24	-1975.18	 1881.04
     63.9810	 2694.00	 2958.16	-1969.11	 1880.87
     64.0070	 2663.00	 2942.62	-1984.56	 1880.71
     64.0330	 2702.00	 2927.59	-1930.53	 1880.54
     64.0590	 2687.00	 2913.07	-1931.01	 1880.38
     64.0850	 2625.00	 2899.02	-1978.97	 1880.21
     64.1110	 2667.00	 2885.45	-1923.40	 1880.04
     64.1370	 2665.00	 2872.33	-1912.27	 1879.88
     64.1630	 2611.00	 2859.64	-1953.59	 1879.71
     64.1890	 2561.00	 2847.38	-1991.33	 1879.55
     64.2150	 2577.00	 2835.53	-1963.47	 1879.38
     64.2410	 2628.00	 2824.07	-1901.01	 1879.22
     64.2670	 2624.00	 2812.99	-1893.93	 1879.05
     64.2930	 2625.00	 2802.27	-1882.21	 1878.88
     64.3190	 2665.00	 2791.90	-1831.84	 1878.72
     64.3450	 2591.00	 2781.87	-1895.81	 1878.55
     64.3710	 2591.00	 2772.17	-1886.11	 1878.39
     64.3970	 2599.00	 2762.78	-1868.72	 1878.22
     64.4230	 2555.00	 2753.69	-1903.63	 1878.06
     64.4490	 2588.00	 2744.89	-1861.84	 1877.89
     64.4750	 2522.00	 2736.38	-1919.32	 1877.73
     64.5010	 2515.00	 2728.13	-1918.07	 1877.56
     64.5270	 2590.00	 2720.14	-1835.09	 1877.39
     64.5530	 2647.00	 2712.40	-1770.35	 1877.23
     64.5790	 2586.00	 2704.90	-1823.85	 1877.06
     64.6050	 2613.00	 2697.64	-1789.58	 1876.90
     64.6310	 2545.00	 2690.59	-1850.54	 1876.73
     64.6570	 2573.00	 2683.77	-1815.71	 1876.57
     64.6830	 2594.00	 2677.15	-1788.09	 1876.40
     64.7090	 2592.00	 2670.72	-1783.67	 1876.23
     64.7350	 2471.00	 2664.49	-1898.44	 1876.07
     64.7610	 2490.00	 2658.45	-1873.40	 1875.90
     64.7870	 2567.00	 2652.58	-1790.53	 1875.74
     64.8130	 2528.00	 2646.89	-1823.83	 1875.57
     64.8390	 2603.00	 2641.36	-1743.30	 1875.41
     64.8650	 2572.00	 2635.99	-1768.94	 1875.24
     64.8910	 2467.00	 2630.78	-1868.72	 1875.08
     64.9170	 2465.00	 2625.71	-1865.66	 1874.91
     64.9430	 2486.00	 2620.79	-1839.73	 1874.74
     64.9690	 2520.00	 2616.00	-1800.95	 1874.58
     64.9950	 2501.00	 2611.35	-1815.30	 1874.41
     65.0210	 2521.00	 2606.83	-1790.78	 1874.25
     65.0470	 2639.00	 2602.44	-1668.38	 1874.08
     65.0730	 2585.00	 2598.17	-1718.11	 1873.92
     65.0990	 2522.00	 2594.01	-1776.95	 1873.75
     65.1250	 2499.00	 2589.96	-1795.91	 1873.58
     65.1510	 2432.00	 2586.02	-1858.97	 1873.42
     65.1770	 2535.00	 2582.19	-1752.14	 1873.25
     65.2030	 2469.00	 2578.47	-1814.41	 1873.09
     65.2290	 2534.00	 2574.84	-1745.78	 1872.92
     65.2550	 2450.00	 2571.30	-1826.25	 1872.76
     65.2810	 2614.00	 2567.86	-1658.81	 1872.59
     65.3070	 2471.00	 2564.51	-1798.46	 1872.43
     65.3330	 2535.00	 2561.25	-1731.19	 1872.26
     65.3590	 2503.00	 2558.07	-1760.01	 1872.09
     65.3850	 2553.00	 2554.97	-1706.92	 1871.93
     65.4110	 2492.00	 2551.95	-1764.90	 1871.76
     65.4370	 2597.00	 2549.01	-1656.96	 1871.60
     65.4630	 2544.00	 2546.15	-1707.09	 1871.43
     65.4890	 2459.00	 2543.36	-1789.30	 1871.27
     65.5150	 2467.00	 2540.64	-1778.58	 1871.10
     65.5410	 2568.00	 2537.98	-1674.93	 1870.94
     65.5670	 2519.00	 2535.40	-1721.35	 1870.77
     65.5930	 2483.00	 2532.88	-1754.83	 1870.60
     65.6190	 2493.00	 2530.43	-1742.37	 1870.44
     65.6450	 2579.00	 2528.03	-1653.98	 1870.27
     65.6710	 2529.00	 2525.70	-1701.65	 1870.11
     65.6970	 2429.00	 2523.43	-1799.37	 1869.94
     65.7230	 2448.00	 2521.21	-1778.16	 1869.78
     65.7490	 2449.00	 2519.05	-1775.00	 1869.61
     65.7750	 2473.00	 2516.95	-1748.89	 1869.44
     65.8010	 2465.00	 2514.90	-1754.84	 1869.28
     65.8270	 2512.00	 2512.90	-1705.84	 1869.11
     65.8530	 2562.00	 2510.95	-1653.90	 1868.95
     65.8790	 2521.00	 2509.05	-1693.00	 1868.78
     65.9050	 2453.00	 2507.21	-1759.15	 1868.62
     65.9310	 2495.00	 2505.41	-1715.35	 1868.45
     65.9570	 2577.00	 2503.65	-1631.60	 1868.29
     65.9830	 2522.00	 2501.95	-1684.89	 1868.12
     66.0090	 2511.00	 2500.29	-1694.23	 1867.95
     66.0350	 2504.00	 2498.67	-1699.62	 1867.79
     66.0610	 2484.00	 2497.10	-1718.04	 1867.62
     66.0870	 2531.00	 2495.57	-1669.51	 1867.46
     66.1130	 2584.00	 2494.08	-1615.02	 1867.29
     66.1390	 2560.00	 2492.63	-1637.58	 1867.13
     66.1650	 2527.00	 2491.22	-1669.17	 1866.96
     66.1910	 2542.00	 2489.85	-1652.80	 1866.79
     66.2170	 2478.00	 2488.52	-1715.47	 1866.63
     66.2430	 2433.00	 2487.23	-1759.18	 1866.46
     66.2690	 2489.00	 2485.97	-1701.92	 1866.30
     66.2950	 2496.00	 2484.75	-1693.70	 1866.13
     66.3210	 2553.00	 2483.56	-1635.51	 1865.97
     66.3470	 2572.00	 2482.41	-1615.35	 1865.80
     66.3730	 2560.00	 2481.29	-1626.23	 1865.64
     66.3990	 2520.00	 2480.19	-1665.14	 1865.47
     66.4250	 2451.00	 2479.13	-1733.08	 1865.30
     66.4510	 2490.00	 2478.10	-1693.04	 1865.14
     66.4770	 2517.00	 2477.09	-1665.03	 1864.97
     66.5030	 2527.00	 2476.10	-1654.05	 1864.81
     66.5290	 2530.00	 2475.14	-1650.09	 1864.64
     66.5550	 2489.00	 2474.20	-1690.15	 1864.48
     66.5810	 2516.00	 2473.28	-1662.23	 1864.31
     66.6070	 2564.00	 2472.38	-1613.33	 1864.14
     66.6330	 2578.00	 2471.49	-1598.44	 1863.98
     66.6590	 2530.00	 2470.62	-1645.56	 1863.81
     66.6850	 2480.00	 2469.75	-1694.70	 1863.65
     66.7110	 2490.00	 2468.89	-1683.84	 1863.48
     66.7370	 2521.00	 2468.04	-1651.99	 1863.32
     66.7630	 2555.00	 2467.19	-1617.14	 1863.15
     66.7890	 2524.00	 2466.35	-1647.29	 1862.99
     66.8150	 2500.00	 2465.50	-1670.44	 1862.82
     66.8410	 2505.00	 2464.64	-1664.59	 1862.65
     66.8670	 2528.00	 2463.78	-1640.73	 1862.49
     66.8930	 2554.00	 2462.92	-1613.86	 1862.32
     66.9190	 2559.00	 2462.04	-1607.98	 1862.16
     66.9450	 2534.00	 2461.15	-1632.09	 1861.99
     66.9710	 2508.00	 2460.24	-1657.19	 1861.83
     66.9970	 2489.00	 2459.32	-1675.27	 1861.66
     67.0230	 2471.00	 2458.39	-1692.33	 1861.49
     67.0490	 2494.00	 2457.44	-1668.38	 1861.33
     67.0750	 2466.00	 2456.47	-1695.41	 1861.16
     67.1010	 2521.00	 2455.48	-1639.42	 1861.00
     67.1270	 2431.00	 2454.47	-1728.42	 1860.83
     67.1530	 2508.00	 2453.45	-1650.40	 1860.67
     67.1790	 2533.00	 2452.41	-1624.36	 1860.50
     67.2050	 2535.00	 2451.36	-1621.30	 1860.34
     67.2310	 2572.00	 2450.29	-1583.23	 1860.17
     67.2570	 2604.00	 2449.20	-1550.15	 1860.00
     67.2830	 2517.00	 2448.11	-1636.05	 1859.84
     67.3090	 2485.00	 2447.00	-1666.95	 1859.67
     67.3350	 2540.00	 2444.38	-1609.33	 1859.51
     67.3610	 2470.00	 2443.26	-1678.21	 1859.34
     67.3870	 2434.00	 2442.14	-1713.08	 1859.18
     67.4130	 2522.00	 2441.01	-1623.96	 1859.01
     67.4390	 2554.00	 2439.13	-1590.08	 1858.84
     67.4650	 2580.00	 2438.00	-1562.95	 1858.68
     67.4910	 2448.00	 2436.88	-1693.82	 1858.51
     67.5170	 2465.00	 2435.75	-1675.70	 1858.35
     67.5430	 2435.00	 2434.63	-1704.58	 1858.18
     67.5690	 2559.00	 2433.52	-1579.46	 1858.02
     67.5950	 2564.00	 2432.41	-1573.36	 1857.85
     67.6210	 2532.00	 2431.31	-1604.26	 1857.69
     67.6470	 2555.00	 2430.22	-1580.17	 1857.52
     67.6730	 2579.00	 2429.15	-1555.09	 1857.35
     67.6990	 2534.00	 2428.08	-1599.03	 1857.19
     67.7250	 2535.00	 2427.03	-1596.97	 1857.02
     67.7510	 2501.00	 2425.99	-1629.93	 1856.86
     67.7770	 2569.00	 2424.96	-1560.91	 1856.69
     67.8030	 2455.00	 2423.97	-1673.91	 1856.55
     67.8290	 2557.00	 2423.02	-1570.97	 1856.44
     67.8550	 2533.00	 2422.09	-1594.04	 1856.32
     67.8810	 2506.00	 2421.17	-1620.12	 1856.21
     67.9070	 2515.00	 2420.27	-1610.22	 1856.10
     67.9330	 2467.00	 2419.39	-1657.33	 1855.99
     67.9590	 2548.00	 2418.51	-1575.46	 1855.88
     67.9850	 2561.00	 2417.66	-1561.60	 1855.77
     68.0110	 2446.00	 2416.81	-1675.76	 1855.65
     68.0370	 2474.00	 2415.99	-1646.93	 1855.54
     68.0630	 2419.00	 2415.17	-1701.12	 1855.43
     68.0890	 2520.00	 2414.37	-1599.32	 1855.32
     68.1150	 2407.00	 2413.59	-1711.54	 1855.21
     68.1410	 2508.00	 2412.82	-1609.76	 1855.10
     68.1670	 2492.00	 2412.06	-1625.01	 1854.99
     68.1930	 2507.00	 2411.32	-1609.26	 1854.87
     68.2190	 2491.00	 2410.58	-1624.53	 1854.76
     68.2450	 2366.00	 2409.86	-1748.81	 1854.65
     68.2710	 2459.00	 2409.16	-1655.10	 1854.54
     68.2970	 2435.00	 2408.46	-1678.41	 1854.43
     68.3230	 2482.00	 2407.78	-1630.73	 1854.32
     68.3490	 2443.00	 2407.11	-1669.06	 1854.21
     68.3750	 2452.00	 2406.45	-1659.40	 1854.09
     68.4010	 2471.00	 2405.80	-1639.75	 1853.98
     68.4270	 2484.00	 2405.17	-1626.11	 1853.87
     68.4530	 2427.00	 2404.54	-1682.49	 1853.76
     68.4790	 2450.00	 2403.92	-1658.87	 1853.65
     68.5050	 2414.00	 2403.32	-1694.26	 1853.54
     68.5310	 2467.00	 2402.72	-1640.67	 1853.42
     68.5570	 2512.00	 2402.14	-1595.08	 1853.31
     68.5830	 2539.00	 2401.56	-1567.50	 1853.20
     68.6090	 2453.00	 2400.99	-1652.94	 1853.09
     68.6350	 2456.00	 2400.43	-1649.38	 1852.98
     68.6610	 2541.00	 2399.88	-1563.82	 1852.87
     68.6870	 2575.00	 2399.34	-1529.28	 1852.76
     68.7130	 2539.00	 2398.80	-1564.75	 1852.64
     68.7390	 2527.00	 2398.28	-1576.22	 1852.53
     68.7650	 2472.00	 2397.76	-1630.70	 1852.42
     68.7910	 2474.00	 2397.25	-1628.19	 1852.31
     68.8170	 2460.00	 2396.74	-1641.69	 1852.20
     68.8430	 2403.00	 2396.25	-1698.19	 1852.09
     68.8690	 2388.00	 2395.76	-1712.70	 1851.98
     68.8950	 2457.00	 2395.27	-1643.22	 1851.86
     68.9210	 2396.00	 2394.80	-1703.74	 1851.75
     68.9470	 2379.00	 2394.33	-1720.28	 1851.64
     68.9730	 2411.00	 2393.87	-1687.81	 1851.53
     68.9990	 2411.00	 2393.41	-1687.36	 1851.42
     69.0250	 2430.00	 2392.96	-1667.91	 1851.31
     69.0510	 2429.00	 2392.52	-1668.46	 1851.19
     69.0770	 2437.00	 2392.08	-1660.02	 1851.08
     69.1030	 2475.00	 2391.65	-1621.59	 1850.97
     69.1290	 2456.00	 2391.18	-1640.12	 1850.86
     69.1550	 2393.00	 2390.76	-1702.70	 1850.75
     69.1810	 2414.00	 2390.34	-1681.29	 1850.64
     69.2070	 2449.00	 2389.93	-1645.88	 1850.53
     69.2330	 2434.00	 2389.50	-1660.45	 1850.41
     69.2590	 2430.00	 2389.10	-1664.05	 1850.30
     69.2850	 2424.00	 2388.71	-1669.65	 1850.19
     69.3110	 2413.00	 2388.32	-1680.26	 1850.08
     69.3370	 2411.00	 2387.93	-1681.88	 1849.97
     69.3630	 2369.00	 2387.55	-1723.50	 1849.86
     69.3890	 2299.00	 2387.18	-1793.12	 1849.75
     69.4150	 2307.00	 2386.80	-1784.75	 1849.63
     69.4410	 2404.00	 2386.44	-1687.38	 1849.52
     69.4670	 2441.00	 2386.07	-1650.02	 1849.41
     69.4930	 2391.00	 2385.72	-1699.66	 1849.30
     69.5190	 2459.00	 2385.36	-1631.31	 1849.19
     69.5450	 2452.00	 2385.01	-1637.96	 1849.08
     69.5710	 2397.00	 2384.66	-1692.61	 1848.96
     69.5970	 2399.00	 2384.32	-1690.27	 1848.85
     69.6230	 2392.00	 2383.98	-1696.93	 1848.74
     69.6490	 2362.00	 2383.65	-1726.60	 1848.63
     69.6750	 2370.00	 2383.32	-1718.27	 1848.52
     69.7010	 2366.00	 2382.99	-1721.94	 1848.41
     69.7270	 2348.00	 2382.67	-1739.62	 1848.30
     69.7530	 2363.00	 2382.35	-1724.30	 1848.18
     69.7790	 2392.00	 2382.04	-1694.98	 1848.07
     69.8050	 2360.00	 2381.72	-1726.67	 1847.96
     69.8310	 2247.00	 2381.42	-1839.36	 1847.85
     69.8570	 2327.00	 2381.11	-1759.06	 1847.74
     69.8830	 2369.00	 2380.81	-1716.76	 1847.63
     69.9090	 2365.00	 2380.51	-1720.46	 1847.52
     69.9350	 2398.00	 2380.22	-1687.16	 1847.40
     69.9610	 2348.00	 2379.93	-1736.87	 1847.29
     69.9870	 2403.00	 2379.64	-1681.58	 1847.18
     70.0130	 2401.00	 2379.35	-1683.30	 1847.07
     70.0390	 2372.00	 2379.07	-1712.02	 1846.96
     70.0650	 2346.00	 2378.79	-1737.74	 1846.85
     70.0910	 2410.00	 2378.52	-1673.46	 1846.73
     70.1170	 2336.00	 2378.24	-1747.19	 1846.62
     70.1430	 2343.00	 2377.98	-1739.92	 1846.51
     70.1690	 2360.00	 2377.71	-1722.66	 1846.40
     70.1950	 2344.00	 2377.45	-1738.39	 1846.29
     70.2210	 2276.00	 2377.19	-1806.13	 1846.18
     70.2470	 2336.00	 2376.93	-1745.88	 1846.07
     70.2730	 2353.00	 2376.68	-1728.62	 1845.95
     70.2990	 2342.00	 2376.42	-1739.37	 1845.84
     70.3250	 2387.00	 2376.18	-1694.12	 1845.73
     70.3510	 2387.00	 2375.93	-1693.88	 1845.62
     70.3770	 2338.00	 2375.69	-1742.63	 1845.51
     70.4030	 2320.00	 2375.45	-1760.39	 1845.40
     70.4290	 2315.00	 2375.21	-1765.16	 1845.29
     70.4550	 2467.00	 2374.98	-1612.92	 1845.17
     70.4810	 2333.00	 2374.75	-1746.69	 1845.06
     70.5070	 2280.00	 2374.52	-1799.46	 1844.95
     70.5330	 2374.00	 2374.29	-1705.24	 1844.84
     70.5590	 2303.00	 2374.07	-1776.02	 1844.73
     70.5850	 2336.00	 2373.85	-1742.80	 1844.62
     70.6110	 2310.00	 2373.63	-1768.58	 1844.50
     70.6370	 2398.00	 2373.42	-1680.36	 1844.39
     70.6630	 2298.00	 2373.21	-1780.15	 1844.28
     70.6890	 2298.00	 2373.00	-1779.94	 1844.17
     70.7150	 2339.00	 2372.79	-1738.74	 1844.06
     70.7410	 2361.00	 2372.59	-1716.53	 1843.95
     70.7670	 2372.00	 2372.39	-1705.33	 1843.84
     70.7930	 2307.00	 2372.19	-1770.14	 1843.72
     70.8190	 2323.00	 2371.99	-1753.94	 1843.61
     70.8450	 2238.00	 2371.80	-1838.75	 1843.50
     70.8710	 2296.00	 2371.61	-1780.56	 1843.39
     70.8970	 2358.00	 2371.43	-1718.37	 1843.28
     70.9230	 2377.00	 2371.24	-1699.19	 1843.17
     70.9490	 2356.00	 2371.06	-1720.01	 1843.06
     70.9750	 2335.00	 2370.88	-1740.83	 1842.94
     71.0010	 2302.00	 2370.70	-1773.65	 1842.83
     71.0270	 2397.00	 2370.53	-1678.48	 1842.72
     71.0530	 2384.00	 2370.36	-1691.31	 1842.61
     71.0790	 2344.00	 2370.19	-1731.14	 1842.50
     71.1050	 2320.00	 2370.03	-1754.97	 1842.39
     71.1310	 2320.00	 2369.87	-1754.81	 1842.27
     71.1570	 2310.00	 2369.71	-1764.65	 1842.16
     71.1830	 2329.00	 2369.55	-1745.50	 1842.05
     71.2090	 2395.00	 2369.40	-1679.34	 1841.94
     71.2350	 2337.00	 2369.25	-1737.19	 1841.83
     71.2610	 2303.00	 2369.10	-1771.05	 1841.72
     71.2870	 2328.00	 2368.96	-1745.90	 1841.61
     71.3130	 2322.00	 2368.81	-1751.76	 1841.49
     71.3390	 2307.00	 2368.67	-1766.62	 1841.38
     71.3650	 2304.00	 2368.54	-1769.49	 1841.27
     71.3910	 2315.00	 2368.41	-1758.35	 1841.16
     71.4170	 2313.00	 2368.28	-1760.22	 1841.05
     71.4430	 2321.00	 2368.15	-1752.10	 1840.94
     71.4690	 2385.00	 2368.03	-1687.97	 1840.83
     71.4950	 2341.00	 2367.91	-1731.85	 1840.71
     71.5210	 2299.00	 2367.79	-1773.74	 1840.60
     71.5470	 2374.00	 2367.68	-1698.62	 1840.49
     71.5730	 2408.00	 2367.57	-1664.51	 1840.38
     71.5990	 2383.00	 2367.46	-1689.40	 1840.27
     71.6250	 2298.00	 2367.35	-1774.30	 1840.16
     71.6510	 2280.00	 2366.98	-1791.93	 1839.77
     71.6770	 2296.00	 2365.74	-1774.68	 1838.51
     71.7030	 2307.00	 2364.50	-1762.45	 1837.26
     71.7290	 2305.00	 2363.26	-1763.21	 1836.00
     71.7550	 2324.00	 2362.03	-1742.98	 1834.74
     71.7810	 2337.00	 2360.80	-1728.75	 1833.49
     71.8070	 2293.00	 2359.58	-1771.53	 1832.23
     71.8330	 2286.00	 2358.36	-1777.30	 1830.97
     71.8590	 2343.00	 2357.14	-1719.09	 1829.71
     71.8850	 2378.00	 2355.93	-1682.87	 1828.46
     71.9110	 2354.00	 2354.72	-1705.67	 1827.20
     71.9370	 2344.00	 2353.51	-1714.46	 1825.94
     71.9630	 2356.00	 2352.31	-1701.26	 1824.69
     71.9890	 2354.00	 2351.12	-1702.06	 1823.43
     72.0150	 2325.00	 2349.92	-1729.87	 1822.17
     72.0410	 2308.00	 2348.74	-1745.68	 1820.91
     72.0670	 2351.00	 2347.55	-1701.50	 1819.66
     72.0930	 2322.00	 2346.37	-1729.32	 1818.40
     72.1190	 2275.00	 2345.20	-1775.15	 1817.14
     72.1450	 2334.00	 2344.03	-1714.98	 1815.89
     72.1710	 2370.00	 2342.86	-1677.81	 1814.63
     72.1970	 2350.00	 2341.70	-1696.65	 1813.37
     72.2230	 2302.00	 2340.55	-1743.50	 1812.11
     72.2490	 2264.00	 2339.40	-1780.35	 1810.86
     72.2750	 2324.00	 2338.26	-1719.20	 1809.60
     72.3010	 2315.00	 2337.12	-1727.06	 1808.34
     72.3270	 2323.00	 2335.98	-1717.93	 1807.09
     72.3530	 2281.00	 2334.85	-1758.80	 1805.83
     72.3790	 2331.00	 2333.73	-1707.68	 1804.57
     72.4050	 2274.00	 2332.62	-1763.56	 1803.31
     72.4310	 2248.00	 2331.50	-1788.45	 1802.06
     72.4570	 2299.00	 2330.40	-1736.35	 1800.80
     72.4830	 2283.00	 2329.30	-1751.25	 1799.54
     72.5090	 2273.00	 2328.21	-1760.16	 1798.29
     72.5350	 2237.00	 2327.13	-1795.07	 1797.03
     72.5610	 2299.00	 2326.05	-1731.99	 1795.77
     72.5870	 2309.00	 2324.98	-1720.92	 1794.51
     72.6130	 2301.00	 2323.92	-1727.86	 1793.26
     72.6390	 2239.00	 2322.86	-1788.81	 1792.00
     72.6650	 2257.00	 2321.81	-1769.76	 1790.74
     72.6910	 2284.00	 2320.77	-1741.72	 1789.49
     72.7170	 2243.00	 2319.74	-1781.68	 1788.23
     72.7430	 2372.00	 2318.71	-1651.66	 1786.97
     72.7690	 2305.00	 2317.70	-1717.64	 1785.71
     72.7950	 2320.00	 2316.69	-1701.64	 1784.46
     72.8210	 2240.00	 2315.69	-1780.64	 1783.20
     72.8470	 2257.00	 2314.71	-1762.65	 1781.94
     72.8730	 2310.00	 2313.73	-1708.67	 1780.69
     72.8990	 2324.00	 2312.76	-1693.71	 1779.43
     72.9250	 2238.00	 2311.80	-1778.75	 1778.17
     72.9510	 2314.00	 2310.85	-1701.80	 1776.91
     72.9770	 2234.00	 2309.92	-1780.86	 1775.66
     73.0030	 2231.00	 2308.99	-1782.94	 1774.40
     73.0290	 2247.00	 2308.08	-1766.02	 1773.14
     73.0550	 2284.00	 2307.17	-1728.12	 1771.89
     73.0810	 2305.00	 2306.28	-1706.23	 1770.63
     73.1070	 2257.00	 2305.41	-1753.35	 1769.37
     73.1330	 2266.00	 2304.54	-1743.49	 1768.11
     73.1590	 2258.00	 2303.69	-1750.64	 1766.86
     73.1850	 2237.00	 2302.86	-1770.80	 1765.60
     73.2110	 2207.00	 2302.03	-1799.98	 1764.34
     73.2370	 2334.00	 2301.23	-1672.17	 1763.09
     73.2630	 2223.00	 2300.44	-1782.38	 1761.83
     73.2890	 2300.00	 2299.66	-1704.61	 1760.57
     73.3150	 2259.00	 2298.90	-1744.85	 1759.31
     73.3410	 2365.00	 2298.16	-1638.11	 1758.06
     73.3670	 2210.00	 2297.44	-1792.38	 1756.80
     73.3930	 2298.00	 2296.73	-1703.68	 1755.54
     73.4190	 2337.00	 2296.04	-1663.99	 1754.29
     73.4450	 2261.00	 2295.38	-1739.32	 1753.03
     73.4710	 2215.00	 2294.73	-1784.68	 1751.77
     73.4970	 2220.00	 2294.10	-1779.05	 1750.51
     73.5230	 2271.00	 2293.50	-1727.44	 1749.26
     73.5490	 2304.00	 2292.92	-1693.86	 1748.00
     73.5750	 2288.00	 2292.36	-1709.30	 1746.74
     73.6010	 2263.00	 2291.82	-1733.77	 1745.49
     73.6270	 2309.00	 2291.31	-1687.26	 1744.23
     73.6530	 2288.00	 2290.83	-1707.78	 1742.97
     73.6790	 2286.00	 2290.37	-1709.32	 1741.71
     73.7050	 2271.00	 2289.94	-1723.89	 1740.46
     73.7310	 2308.00	 2289.54	-1686.49	 1739.20
     73.7570	 2230.00	 2289.17	-1764.11	 1737.94
     73.7830	 2276.00	 2288.83	-1717.77	 1736.69
     73.8090	 2302.00	 2288.52	-1691.46	 1735.43
     73.8350	 2291.00	 2288.24	-1702.18	 1734.17
     73.8610	 2283.00	 2287.99	-1709.94	 1732.91
     73.8870	 2322.00	 2287.78	-1670.73	 1731.66
     73.9130	 2346.00	 2287.61	-1646.56	 1730.40
     73.9390	 2328.00	 2287.47	-1664.42	 1729.14
     73.9650	 2299.00	 2287.37	-1693.32	 1727.89
     73.9910	 2309.00	 2287.31	-1683.26	 1726.63
     74.0170	 2294.00	 2287.29	-1698.23	 1725.37
     74.0430	 2279.00	 2287.31	-1713.25	 1724.11
     74.0690	 2321.00	 2287.37	-1671.31	 1722.86
     74.0950	 2261.00	 2287.47	-1731.42	 1721.60
     74.1210	 2346.00	 2287.62	-1646.56	 1720.34
     74.1470	 2358.00	 2287.81	-1634.76	 1719.09
     74.1730	 2247.00	 2288.05	-1745.99	 1717.83
     74.1990	 2268.00	 2288.33	-1725.28	 1716.57
     74.2250	 2285.00	 2288.66	-1708.61	 1715.31
     74.2510	 2316.00	 2289.04	-1677.99	 1714.06
     74.2770	 2305.00	 2289.47	-1689.41	 1712.80
     74.3030	 2281.00	 2289.94	-1713.89	 1711.54
     74.3290	 2324.00	 2290.46	-1671.41	 1710.29
     74.3550	 2355.00	 2291.03	-1640.98	 1709.03
     74.3810	 2355.00	 2291.65	-1641.60	 1707.77
     74.4070	 2315.00	 2292.31	-1682.26	 1706.51
     74.4330	 2296.00	 2293.02	-1701.97	 1705.26
     74.4590	 2280.00	 2293.78	-1718.72	 1704.00
     74.4850	 2281.00	 2294.57	-1718.52	 1702.74
     74.5110	 2305.00	 2295.41	-1695.35	 1701.49
     74.5370	 2310.00	 2296.28	-1691.23	 1700.23
     74.5630	 2320.00	 2297.19	-1682.14	 1698.97
     74.5890	 2325.00	 2298.13	-1678.08	 1697.71
     74.6150	 2288.00	 2299.10	-1716.04	 1696.46
     74.6410	 2251.00	 2300.08	-1754.03	 1695.20
     74.6670	 2312.00	 2301.09	-1694.03	 1693.94
     74.6930	 2282.00	 2302.10	-1725.05	 1692.69
     74.7190	 2238.00	 2303.12	-1770.07	 1691.43
     74.7450	 2256.00	 2304.14	-1753.09	 1690.17
     74.7710	 2276.00	 2305.15	-1734.09	 1688.91
     74.7970	 2302.00	 2306.13	-1709.08	 1687.66
     74.8230	 2284.00	 2307.09	-1728.03	 1686.40
     74.8490	 2287.00	 2308.01	-1725.95	 1685.14
     74.8750	 2251.00	 2308.88	-1762.82	 1683.89
     74.9010	 2299.00	 2309.69	-1715.63	 1682.63
     74.9270	 2339.00	 2310.43	-1676.37	 1681.37
     74.9530	 2384.00	 2310.84	-1631.78	 1679.87
     74.9790	 2378.00	 2311.05	-1637.99	 1678.25
     75.0050	 2316.00	 2311.15	-1700.09	 1676.63
     75.0310	 2298.00	 2311.14	-1718.08	 1675.01
     75.0570	 2312.00	 2311.00	-1703.95	 1673.40
     75.0830	 2397.00	 2310.74	-1618.68	 1671.78
     75.1090	 2413.00	 2310.32	-1602.27	 1670.16
     75.1350	 2345.00	 2309.76	-1669.71	 1668.54
     75.1610	 2315.00	 2309.04	-1698.99	 1666.93
     75.1870	 2312.00	 2308.15	-1701.10	 1665.31
     75.2130	 2369.00	 2307.09	-1643.04	 1663.69
     75.2390	 2322.00	 2305.86	-1688.81	 1662.07
     75.2650	 2327.00	 2304.46	-1682.40	 1660.46
     75.2910	 2359.00	 2302.87	-1648.82	 1658.84
     75.3170	 2370.00	 2301.11	-1636.05	 1657.22
     75.3430	 2375.00	 2299.17	-1629.12	 1655.60
     75.3690	 2290.00	 2297.06	-1712.01	 1653.99
     75.3950	 2270.00	 2294.79	-1729.74	 1652.37
     75.4210	 2299.00	 2292.35	-1698.30	 1650.75
     75.4470	 2376.00	 2289.76	-1618.71	 1649.13
     75.4730	 2280.00	 2287.03	-1711.97	 1647.52
     75.4990	 2308.00	 2284.15	-1681.10	 1645.90
     75.5250	 2273.00	 2281.15	-1713.10	 1644.28
     75.5510	 2306.00	 2278.03	-1676.97	 1642.66
     75.5770	 2205.00	 2274.80	-1774.75	 1641.05
     75.6030	 2215.00	 2271.48	-1761.42	 1639.43
     75.6290	 2277.00	 2268.07	-1696.01	 1637.81
     75.6550	 2249.00	 2264.58	-1720.53	 1636.19
     75.6810	 2271.00	 2261.03	-1694.98	 1634.58
     75.7070	 2294.00	 2256.95	-1667.89	 1632.96
     75.7330	 2314.00	 2253.30	-1644.25	 1631.34
     75.7590	 2244.00	 2249.62	-1710.57	 1629.72
     75.7850	 2204.00	 2245.92	-1746.86	 1628.11
     75.8110	 2284.00	 2242.20	-1663.14	 1626.49
     75.8370	 2283.00	 2238.23	-1660.18	 1624.87
     75.8630	 2347.00	 2234.51	-1592.45	 1623.25
     75.8890	 2249.00	 2230.79	-1686.74	 1621.64
     75.9150	 2168.00	 2227.09	-1764.03	 1620.02
     75.9410	 2191.00	 2223.40	-1737.35	 1618.40
     75.9670	 2175.00	 2219.74	-1749.69	 1616.78
     75.9930	 2274.00	 2216.12	-1647.06	 1615.17
     76.0190	 2266.00	 2212.52	-1651.47	 1613.55
     76.0450	 2262.00	 2208.97	-1651.91	 1611.93
     76.0710	 2182.00	 2205.45	-1728.40	 1610.31
     76.0970	 2197.00	 2201.98	-1709.92	 1608.70
     76.1230	 2219.00	 2198.55	-1684.50	 1607.08
     76.1490	 2253.00	 2195.17	-1647.12	 1605.46
     76.1750	 2138.00	 2191.84	-1758.79	 1603.84
     76.2010	 2172.00	 2188.56	-1721.51	 1602.23
     76.2270	 2173.00	 2185.33	-1717.28	 1600.61
     76.2530	 2174.00	 2182.16	-1713.10	 1598.99
     76.2790	 2106.00	 2179.03	-1777.98	 1597.37
     76.3050	 2186.00	 2175.96	-1694.90	 1595.76
     76.3310	 2226.00	 2172.94	-1651.88	 1594.14
     76.3570	 2230.00	 2169.97	-1644.91	 1592.52
     76.3830	 2136.00	 2167.05	-1735.99	 1590.90
     76.4090	 2185.00	 2164.18	-1684.13	 1589.29
     76.4350	 2177.00	 2161.36	-1689.31	 1587.67
     76.4610	 2153.00	 2158.60	-1710.54	 1586.05
     76.4870	 2158.00	 2155.88	-1702.83	 1584.43
     76.5130	 2141.00	 2153.21	-1717.16	 1582.82
     76.5390	 2159.00	 2150.59	-1696.54	 1581.20
     76.5650	 2127.00	 2148.02	-1725.96	 1579.58
     76.5910	 2178.00	 2145.49	-1672.44	 1577.96
     76.6170	 2176.00	 2143.01	-1671.95	 1576.35
     76.6430	 2149.00	 2140.57	-1696.52	 1574.73
     76.6690	 2148.00	 2138.15	-1695.10	 1573.08
     76.6950	 2187.00	 2135.66	-1653.61	 1571.33
     76.7210	 2152.00	 2133.22	-1686.16	 1569.57
     76.7470	 2125.00	 2130.81	-1710.76	 1567.82
     76.7730	 2136.00	 2128.45	-1697.39	 1566.06
     76.7990	 2125.00	 2126.13	-1706.07	 1564.31
     76.8250	 2147.00	 2123.84	-1681.79	 1562.55
     76.8510	 2161.00	 2121.60	-1665.54	 1560.80
     76.8770	 2192.00	 2119.39	-1632.34	 1559.04
     76.9030	 2180.00	 2117.22	-1642.17	 1557.29
     76.9290	 2139.00	 2115.09	-1681.04	 1555.53
     76.9550	 2151.00	 2113.00	-1666.94	 1553.78
     76.9810	 2090.00	 2110.94	-1725.89	 1552.02
     77.0070	 2009.00	 2108.92	-1804.87	 1550.27
     77.0330	 2075.00	 2106.93	-1736.88	 1548.51
     77.0590	 2140.00	 2104.98	-1669.93	 1546.76
     77.0850	 2170.00	 2103.07	-1638.01	 1545.00
     77.1110	 2138.00	 2101.19	-1668.13	 1543.25
     77.1370	 2119.00	 2099.34	-1685.29	 1541.49
     77.1630	 2118.00	 2097.53	-1684.48	 1539.73
     77.1890	 2047.00	 2095.76	-1753.70	 1537.98
     77.2150	 2058.00	 2094.01	-1740.96	 1536.22
     77.2410	 2057.00	 2092.31	-1740.25	 1534.47
     77.2670	 2074.00	 2090.63	-1721.58	 1532.71
     77.2930	 2102.00	 2088.99	-1691.94	 1530.96
     77.3190	 2109.00	 2087.39	-1683.34	 1529.20
     77.3450	 2146.00	 2085.82	-1644.77	 1527.45
     77.3710	 2132.00	 2084.29	-1657.23	 1525.69
     77.3970	 2129.00	 2082.79	-1658.73	 1523.94
     77.4230	 2159.00	 2081.33	-1627.27	 1522.18
     77.4490	 2158.00	 2079.90	-1626.84	 1520.43
     77.4750	 2133.00	 2078.51	-1650.45	 1518.67
     77.5010	 2109.00	 2077.16	-1673.10	 1516.92
     77.5270	 2082.00	 2075.84	-1698.78	 1515.16
     77.5530	 2086.00	 2074.56	-1693.51	 1513.41
     77.5790	 2089.00	 2073.32	-1689.27	 1511.65
     77.6050	 2068.00	 2072.12	-1709.06	 1509.90
     77.6310	 2017.00	 2070.96	-1758.90	 1508.14
     77.6570	 2107.00	 2069.84	-1667.78	 1506.39
     77.6830	 2091.00	 2068.76	-1682.70	 1504.63
     77.7090	 2022.00	 2067.72	-1750.66	 1502.88
     77.7350	 2120.00	 2066.72	-1651.67	 1501.12
     77.7610	 2083.00	 2065.77	-1687.71	 1499.37
     77.7870	 2059.00	 2064.86	-1710.81	 1497.61
     77.8130	 2115.00	 2064.00	-1653.94	 1495.86
     77.8390	 2065.00	 2063.18	-1703.12	 1494.10
     77.8650	 2088.00	 2062.41	-1679.35	 1492.35
     77.8910	 2048.00	 2061.69	-1718.63	 1490.59
     77.9170	 2044.00	 2061.01	-1721.96	 1488.83
     77.9430	 2019.00	 2060.39	-1746.33	 1487.08
     77.9690	 2090.00	 2059.81	-1674.76	 1485.32
     77.9950	 2123.00	 2059.29	-1641.24	 1483.57
     78.0210	 2129.00	 2058.82	-1634.77	 1481.81
     78.0470	 2053.00	 2058.41	-1710.35	 1480.06
     78.0730	 2065.00	 2059.33	-1699.28	 1479.59
     78.0990	 2030.00	 2060.90	-1735.85	 1479.71
     78.1250	 2046.00	 2062.53	-1721.47	 1479.83
     78.1510	 2101.00	 2064.21	-1668.15	 1479.96
     78.1770	 2029.00	 2065.94	-1741.89	 1480.08
     78.2030	 2010.00	 2067.74	-1762.68	 1480.20
     78.2290	 2100.00	 2069.59	-1674.53	 1480.32
     78.2550	 1993.00	 2071.50	-1783.44	 1480.44
     78.2810	 2013.00	 2073.46	-1765.41	 1480.56
     78.3070	 2016.00	 2075.49	-1764.43	 1480.68
     78.3330	 2053.00	 2077.57	-1729.51	 1480.80
     78.3590	 2141.00	 2079.70	-1643.65	 1480.92
     78.3850	 2058.00	 2081.89	-1728.84	 1481.04
     78.4110	 2099.00	 2084.13	-1690.08	 1481.16
     78.4370	 2055.00	 2086.43	-1736.37	 1481.28
     78.4630	 2077.00	 2088.77	-1716.71	 1481.40
     78.4890	 2034.00	 2091.15	-1762.10	 1481.52
     78.5150	 2067.00	 2093.58	-1731.53	 1481.64
     78.5410	 2088.00	 2096.05	-1713.00	 1481.76
     78.5670	 2081.00	 2098.55	-1722.50	 1481.88
     78.5930	 2168.00	 2101.08	-1638.03	 1482.00
     78.6190	 2041.00	 2103.63	-1767.58	 1482.12
     78.6450	 2027.00	 2106.20	-1784.15	 1482.24
     78.6710	 2074.00	 2108.78	-1739.73	 1482.36
     78.6970	 2130.00	 2111.36	-1686.31	 1482.48
     78.7230	 2120.00	 2113.93	-1698.88	 1482.60
     78.7490	 2078.00	 2116.49	-1743.44	 1482.72
     78.7750	 2052.00	 2119.02	-1771.97	 1482.84
     78.8010	 2081.00	 2121.52	-1745.47	 1482.96
     78.8270	 2082.00	 2123.97	-1746.91	 1483.08
     78.8530	 2118.00	 2126.36	-1713.31	 1483.20
     78.8790	 2105.00	 2128.58	-1728.53	 1483.22
     78.9050	 2103.00	 2130.70	-1732.65	 1483.22
     78.9310	 2120.00	 2132.73	-1717.68	 1483.22
     78.9570	 2180.00	 2134.65	-1659.60	 1483.22
     78.9830	 2100.00	 2136.45	-1741.40	 1483.22
     79.0090	 2125.00	 2138.12	-1718.07	 1483.22
     79.0350	 2115.00	 2139.65	-1729.60	 1483.22
     79.0610	 2154.00	 2141.03	-1691.98	 1483.22
     79.0870	 2108.00	 2142.25	-1739.19	 1483.22
     79.1130	 2082.00	 2143.29	-1766.24	 1483.22
     79.1390	 2102.00	 2144.16	-1747.11	 1483.22
     79.1650	 2165.00	 2144.84	-1684.79	 1483.22
     79.1910	 2177.00	 2145.33	-1673.27	 1483.22
     79.2170	 2163.00	 2145.62	-1687.57	 1483.22
     79.2430	 2147.00	 2145.71	-1703.66	 1483.22
     79.2690	 2120.00	 2145.61	-1730.55	 1483.22
     79.2950	 2121.00	 2145.30	-1729.25	 1483.22
     79.3210	 2161.00	 2144.79	-1688.74	 1483.22
     79.3470	 2134.00	 2144.09	-1715.04	 1483.22
     79.3730	 2099.00	 2143.20	-1749.15	 1483.22
     79.3990	 2147.00	 2142.13	-1700.07	 1483.22
     79.4250	 2160.00	 2140.87	-1685.82	 1483.22
     79.4510	 2201.00	 2139.45	-1643.39	 1483.22
     79.4770	 2225.00	 2137.86	-1617.81	 1483.22
     79.5030	 2157.00	 2136.13	-1684.07	 1483.22
     79.5290	 2062.00	 2134.25	-1777.20	 1483.22
     79.5550	 2115.00	 2132.25	-1722.19	 1483.22
     79.5810	 2143.00	 2130.12	-1692.07	 1483.22
     79.6070	 2154.00	 2127.89	-1678.84	 1483.22
     79.6330	 2195.00	 2125.57	-1635.52	 1483.22
     79.6590	 2178.00	 2123.17	-1650.11	 1483.22
     79.6850	 2217.00	 2120.69	-1608.63	 1483.22
     79.7110	 2207.00	 2118.15	-1616.10	 1483.22
     79.7370	 2113.00	 2115.57	-1707.51	 1483.22
     79.7630	 2106.00	 2112.94	-1711.89	 1483.22
     79.7890	 2107.00	 2110.29	-1708.24	 1483.22
     79.8150	 2100.00	 2107.62	-1712.56	 1483.22
     79.8410	 2136.00	 2104.94	-1673.88	 1483.22
     79.8670	 2163.00	 2102.26	-1644.20	 1483.22
     18.3351	        	        	        	        	       0	(  1  1  1)	  0  1
     18.3815	        	        	        	        	       0	(  1  1  1)	  0  2
     30.1604	        	        	        	        	       0	(  2  2  0)	  0  1
     30.2379	        	        	        	        	       0	(  2  2  0)	  0  2
     35.5257	        	        	        	        	       0	(  3  1  1)	  0  1
     35.6178	        	        	        	        	       0	(  3  1  1)	  0  2
     37.1618	        	        	        	        	       0	(  2  2  2)	  0  1
     37.2585	        	        	        	        	       0	(  2  2  2)	  0  2
     43.1770	        	        	        	        	       0	(  4  0  0)	  0  1
     43.2908	        	        	        	        	       0	(  4  0  0)	  0  2
     47.2753	        	        	        	        	       0	(  3  3  1)	  0  1
     47.4011	        	        	        	        	       0	(  3  3  1)	  0  2
     53.5682	        	        	        	        	       0	(  4  2  2)	  0  1
     53.7134	        	        	        	        	       0	(  4  2  2)	  0  2
     57.1051	        	        	        	        	       0	(  5  1  1)	  0  1
     57.1052	        	        	        	        	       0	(  3  3  3)	  0  1
     57.2617	        	        	        	        	       0	(  5  1  1)	  0  2
     57.2617	        	        	        	        	       0	(  3  3  3)	  0  2
     62.7104	        	        	        	        	       0	(  4  4  0)	  0  1
     62.8857	        	        	        	        	       0	(  4  4  0)	  0  2
     65.9383	        	        	        	        	       0	(  5  3  1)	  0  1
     66.1249	        	        	        	        	       0	(  5  3  1)	  0  2
     66.9958	        	        	        	        	       0	(  4  4  2)	  0  1
     67.1862	        	        	        	        	       0	(  4  4  2)	  0  2
     71.1489	        	        	        	        	       0	(  6  2  0)	  0  1
     71.3547	        	        	        	        	       0	(  6  2  0)	  0  2
     74.1963	        	        	        	        	       0	(  5  3  3)	  0  1
     74.4139	        	        	        	        	       0	(  5  3  3)	  0  2
     75.2015	        	        	        	        	       0	(  6  2  2)	  0  1
     75.4231	        	        	        	        	       0	(  6  2  2)	  0  2
     79.1796	        	        	        	        	       0	(  4  4  4)	  0  1
     79.4176	        	        	        	        	       0	(  4  4  4)	  0  2
