 AH10    CELL:    8.38953   8.38953   8.38953   90.0000   90.0000   90.0000   SPGR: F d -3 m               TEMP:      0.00
  1   2874     1.54056     1.54439    -0.02150    -0.00130     0.00000    0
   94    0    0
 2Theta	Yobs	Ycal	Yobs-Ycal	Backg	Bragg	Posr	(hkl)	K
      5.1690	 4544.00	 4550.03	-1294.97	 4242.90	     18.2781	       0	(  1  1  1)	  0  1
      5.1950	 4535.00	 4535.93	-1289.87	 4228.79	     18.3240	       0	(  1  1  1)	  0  2
      5.2210	 4508.00	 4521.86	-1302.80	 4214.72	     30.0807	       0	(  2  2  0)	  0  1
      5.2470	 4492.00	 4507.84	-1304.78	 4200.69	     30.1573	       0	(  2  2  0)	  0  2
      5.2730	 4496.00	 4493.85	-1286.79	 4186.70	     35.4352	       0	(  3  1  1)	  0  1
      5.2990	 4491.00	 4479.90	-1277.84	 4172.74	     35.5262	       0	(  3  1  1)	  0  2
      5.3250	 4450.00	 4465.99	-1304.93	 4158.83	     37.0680	       0	(  2  2  2)	  0  1
      5.3510	 4518.00	 4452.12	-1223.06	 4144.95	     37.1635	       0	(  2  2  2)	  0  2
      5.3770	 4381.00	 4438.29	-1346.23	 4131.12	     43.0705	       0	(  4  0  0)	  0  1
      5.4030	 4371.00	 4424.50	-1342.44	 4117.32	     43.1830	       0	(  4  0  0)	  0  2
      5.4290	 4428.00	 4410.75	-1271.69	 4103.57	     47.1600	       0	(  3  3  1)	  0  1
      5.4550	 4449.00	 4397.04	-1236.98	 4089.86	     47.2844	       0	(  3  3  1)	  0  2
      5.4810	 4453.00	 4383.37	-1219.31	 4076.18	     53.4388	       0	(  4  2  2)	  0  1
      5.5070	 4321.00	 4369.74	-1337.68	 4062.55	     53.5822	       0	(  4  2  2)	  0  2
      5.5330	 4249.00	 4356.15	-1396.09	 4048.95	     56.9674	       0	(  3  3  3)	  0  1
      5.5590	 4415.00	 4342.60	-1216.54	 4035.40	     56.9674	       0	(  5  1  1)	  0  1
      5.5850	 4342.00	 4329.10	-1276.04	 4021.89	     57.1220	       0	(  5  1  1)	  0  2
      5.6110	 4361.00	 4315.63	-1243.57	 4008.42	     57.1220	       0	(  3  3  3)	  0  2
      5.6370	 4382.00	 4302.21	-1209.15	 3994.99	     62.5590	       0	(  4  4  0)	  0  1
      5.6630	 4286.00	 4288.83	-1291.77	 3981.60	     62.7321	       0	(  4  4  0)	  0  2
      5.6890	 4327.00	 4275.49	-1237.43	 3968.26	     65.7785	       0	(  5  3  1)	  0  1
      5.7150	 4248.00	 4262.19	-1303.13	 3954.96	     65.9628	       0	(  5  3  1)	  0  2
      5.7410	 4235.00	 4248.94	-1302.87	 3941.69	     66.8332	       0	(  4  4  2)	  0  1
      5.7670	 4244.00	 4235.72	-1280.66	 3928.48	     67.0213	       0	(  4  4  2)	  0  2
      5.7930	 4348.00	 4222.55	-1163.49	 3915.30	     70.9751	       0	(  6  2  0)	  0  1
      5.8190	 4252.00	 4209.43	-1246.36	 3902.17	     71.1783	       0	(  6  2  0)	  0  2
      5.8450	 4266.00	 4196.34	-1219.28	 3889.08	     74.0138	       0	(  5  3  3)	  0  1
      5.8710	 4134.00	 4183.30	-1338.24	 3876.03	     74.2287	       0	(  5  3  3)	  0  2
      5.8970	 4204.00	 4170.30	-1255.24	 3863.03	     75.0161	       0	(  6  2  2)	  0  1
      5.9230	 4192.00	 4157.35	-1254.29	 3850.07	     75.2349	       0	(  6  2  2)	  0  2
      5.9490	 4247.00	 4144.44	-1186.38	 3837.16	     78.9822	       0	(  4  4  4)	  0  1
      5.9750	 4253.00	 4131.57	-1167.51	 3824.29	     79.2172	       0	(  4  4  4)	  0  2
      6.0010	 4176.00	 4118.75	-1231.69	 3811.46	     81.9211	       0	(  5  5  1)	  0  1
      6.0270	 4153.00	 4105.98	-1241.91	 3798.68	     81.9211	       0	(  7  1  1)	  0  1
      6.0530	 4093.00	 4093.24	-1289.18	 3785.94	     82.1686	       0	(  5  5  1)	  0  2
      6.0790	 4095.00	 4080.56	-1274.49	 3773.25	     82.1686	       0	(  7  1  1)	  0  2
      6.1050	 4043.00	 4067.91	-1313.85	 3760.60	     86.7760	       0	(  6  4  2)	  0  1
      6.1310	 4060.00	 4055.31	-1284.25	 3748.00	     87.0455	       0	(  6  4  2)	  0  2
      6.1570	 4060.00	 4042.76	-1271.70	 3735.44	     89.6756	       0	(  5  5  3)	  0  1
      6.1830	 4059.00	 4030.26	-1260.19	 3722.93	     89.6756	       0	(  7  3  1)	  0  1
      6.2090	 4027.00	 4017.79	-1279.73	 3710.46	     89.9592	       0	(  5  5  3)	  0  2
      6.2350	 3955.00	 4005.38	-1339.31	 3698.04	     89.9592	       0	(  7  3  1)	  0  2
      6.2610	 4026.00	 3993.01	-1255.95	 3685.66	     94.5104	       0	(  8  0  0)	  0  1
      6.2870	 4028.00	 3980.68	-1241.62	 3673.33	     94.8190	       0	(  8  0  0)	  0  2
      6.3130	 3965.00	 3968.41	-1292.34	 3661.05	     97.4246	       0	(  7  3  3)	  0  1
      6.3390	 4008.00	 3956.17	-1237.11	 3648.81	     97.7495	       0	(  7  3  3)	  0  2
      6.3650	 4043.00	 3943.99	-1189.93	 3636.62	     98.4000	       0	(  6  4  4)	  0  1
      6.3910	 4013.00	 3931.85	-1207.79	 3624.48	     98.7305	       0	(  6  4  4)	  0  2
      6.4170	 4005.00	 3919.76	-1203.70	 3612.38	    102.3291	       0	(  6  6  0)	  0  1
      6.4430	 3977.00	 3907.72	-1219.66	 3600.33	    102.3291	       0	(  8  2  2)	  0  1
      6.4690	 3954.00	 3895.72	-1230.66	 3588.33	    102.6837	       0	(  6  6  0)	  0  2
      6.4950	 3969.00	 3883.77	-1203.71	 3576.38	    102.6837	       0	(  8  2  2)	  0  2
      6.5210	 3902.00	 3871.87	-1258.81	 3564.47	    105.3142	       0	(  5  5  5)	  0  1
      6.5470	 3868.00	 3860.02	-1280.95	 3552.61	    105.3142	       0	(  7  5  1)	  0  1
      6.5730	 3854.00	 3848.21	-1283.15	 3540.80	    105.6883	       0	(  5  5  5)	  0  2
      6.5990	 3874.00	 3836.45	-1251.39	 3529.03	    105.6883	       0	(  7  5  1)	  0  2
      6.6250	 3885.00	 3824.74	-1228.68	 3517.32	    106.3183	       0	(  6  6  2)	  0  1
      6.6510	 3852.00	 3813.08	-1250.02	 3505.65	    106.6994	       0	(  6  6  2)	  0  2
      6.6770	 3874.00	 3801.47	-1216.41	 3494.03	    110.3909	       0	(  8  4  0)	  0  1
      6.7030	 3839.00	 3789.90	-1239.84	 3482.46	    110.8017	       0	(  8  4  0)	  0  2
      6.7290	 3689.00	 3778.38	-1378.32	 3470.94	    113.5163	       0	(  7  5  3)	  0  1
      6.7550	 3676.00	 3766.92	-1379.85	 3459.46	    113.5163	       0	(  9  1  1)	  0  1
      6.7810	 3755.00	 3755.50	-1289.43	 3448.04	    113.9522	       0	(  7  5  3)	  0  2
      6.8070	 3774.00	 3744.13	-1259.07	 3436.66	    113.9522	       0	(  9  1  1)	  0  2
      6.8330	 3862.00	 3732.81	-1159.75	 3425.33	    114.5743	       0	(  8  4  2)	  0  1
      6.8590	 3745.00	 3721.54	-1265.47	 3414.06	    115.0192	       0	(  8  4  2)	  0  2
      6.8850	 3720.00	 3710.31	-1279.25	 3402.83	    118.9029	       0	(  6  6  4)	  0  1
      6.9110	 3738.00	 3699.14	-1250.08	 3391.65	    119.3873	       0	(  6  6  4)	  0  2
      6.9370	 3707.00	 3688.02	-1269.96	 3380.52	    122.2706	       0	(  9  3  1)	  0  1
      6.9630	 3608.00	 3676.95	-1357.88	 3369.44	    122.7895	       0	(  9  3  1)	  0  2
      6.9890	 3704.00	 3665.92	-1250.86	 3358.41	    128.1878	       0	(  8  4  4)	  0  1
      7.0150	 3678.00	 3654.95	-1265.89	 3347.43	    128.7775	       0	(  8  4  4)	  0  2
      7.0410	 3631.00	 3644.03	-1301.97	 3336.50	    131.9774	       0	(  7  5  5)	  0  1
      7.0670	 3556.00	 3633.16	-1366.09	 3325.63	    131.9774	       0	(  7  7  1)	  0  1
      7.0930	 3674.00	 3622.33	-1237.27	 3314.80	    131.9774	       0	(  9  3  3)	  0  1
      7.1190	 3541.00	 3611.56	-1359.50	 3304.02	    132.6210	       0	(  7  5  5)	  0  2
      7.1450	 3470.00	 3600.84	-1419.78	 3293.29	    132.6210	       0	(  7  7  1)	  0  2
      7.1710	 3531.00	 3590.17	-1348.11	 3282.61	    132.6210	       0	(  9  3  3)	  0  2
      7.1970	 3407.00	 3579.55	-1461.49	 3271.99	    138.8658	       0	( 10  2  0)	  0  1
      7.2230	 3550.00	 3568.98	-1307.92	 3261.41	    138.8658	       0	(  8  6  2)	  0  1
      7.2490	 3447.00	 3558.47	-1400.40	 3250.89	    139.6319	       0	( 10  2  0)	  0  2
      7.2750	 3396.00	 3548.00	-1440.94	 3240.42	    139.6319	       0	(  8  6  2)	  0  2
      7.3010	 3544.00	 3537.58	-1282.52	 3230.00	    143.4921	       0	(  7  7  3)	  0  1
      7.3270	 3378.00	 3527.22	-1438.16	 3219.62	    143.4921	       0	(  9  5  1)	  0  1
      7.3530	 3478.00	 3516.91	-1327.85	 3209.31	    144.3660	       0	(  7  7  3)	  0  2
      7.3790	 3492.00	 3506.65	-1303.58	 3199.04	    144.3660	       0	(  9  5  1)	  0  2
      7.4050	 3424.00	 3496.44	-1361.38	 3188.82	    145.1492	       0	( 10  2  2)	  0  1
      7.4310	 3392.00	 3486.28	-1383.22	 3178.66	    145.1493	       0	(  6  6  6)	  0  1
      7.4570	 3504.00	 3476.17	-1261.11	 3168.54	    146.0688	       0	( 10  2  2)	  0  2
      7.4830	 3397.00	 3466.12	-1358.06	 3158.48	    146.0688	       0	(  6  6  6)	  0  2
      7.5090	 3405.00	 3456.12	-1340.06	 3148.48	    159.8427	       0	(  9  5  3)	  0  1
      7.5350	 3480.00	 3446.17	-1255.11	 3138.52	    161.5152	       0	(  9  5  3)	  0  2
      7.5610	 3445.00	 3436.27	-1280.21	 3128.61	    162.8681	       0	(  8  6  4)	  0  1
      7.5870	 3396.00	 3426.42	-1319.36	 3118.76	    164.8781	       0	(  8  6  4)	  0  2
      7.6130	 3391.00	 3416.63	-1314.57	 3108.96
      7.6390	 3250.00	 3406.89	-1445.83	 3099.21
      7.6650	 3328.00	 3397.20	-1358.14	 3089.52
      7.6910	 3308.00	 3387.57	-1368.51	 3079.87
      7.7170	 3434.00	 3377.98	-1232.92	 3070.28
      7.7430	 3423.00	 3368.45	-1234.39	 3060.75
      7.7690	 3309.00	 3358.98	-1338.91	 3051.26
      7.7950	 3337.00	 3349.55	-1301.49	 3041.83
      7.8210	 3223.00	 3340.18	-1406.12	 3032.45
      7.8470	 3259.00	 3330.86	-1360.80	 3023.12
      7.8730	 3225.00	 3321.59	-1385.53	 3013.85
      7.8990	 3211.00	 3312.38	-1390.32	 3004.63
      7.9250	 3217.00	 3303.22	-1375.16	 2995.46
      7.9510	 3274.00	 3294.11	-1309.05	 2986.35
      7.9770	 3248.00	 3285.06	-1326.00	 2977.28
      8.0030	 3330.00	 3276.06	-1235.00	 2968.28
      8.0290	 3220.00	 3267.11	-1336.05	 2959.32
      8.0550	 3183.00	 3258.22	-1364.16	 2950.42
      8.0810	 3133.00	 3249.38	-1405.32	 2941.57
      8.1070	 3136.00	 3240.59	-1393.53	 2932.78
      8.1330	 3147.00	 3231.86	-1373.80	 2924.04
      8.1590	 3173.00	 3223.18	-1339.12	 2915.35
      8.1850	 3091.00	 3214.55	-1412.49	 2906.71
      8.2110	 3078.00	 3205.98	-1416.92	 2898.13
      8.2370	 3070.00	 3197.46	-1416.40	 2889.61
      8.2630	 3097.00	 3189.00	-1380.94	 2881.13
      8.2890	 3126.00	 3180.59	-1343.52	 2872.72
      8.3150	 3110.00	 3172.23	-1351.17	 2864.35
      8.3410	 3111.00	 3163.93	-1341.86	 2856.04
      8.3670	 3108.00	 3155.68	-1336.62	 2847.78
      8.3930	 3159.00	 3147.48	-1277.42	 2839.58
      8.4190	 3070.00	 3139.34	-1358.28	 2831.43
      8.4450	 3047.00	 3131.27	-1373.21	 2823.33
      8.4710	 3017.00	 3123.23	-1395.17	 2815.29
      8.4970	 3096.00	 3115.26	-1308.19	 2807.30
      8.5230	 3116.00	 3107.33	-1280.27	 2799.36
      8.5490	 3093.00	 3099.47	-1295.40	 2791.48
      8.5750	 3094.00	 3091.65	-1286.58	 2783.66
      8.6010	 3000.00	 3083.88	-1372.82	 2775.88
      8.6270	 2931.00	 3076.17	-1434.11	 2768.17
      8.6530	 2986.00	 3068.52	-1371.46	 2760.50
      8.6790	 3015.00	 3060.92	-1334.85	 2752.89
      8.7050	 2999.00	 3053.37	-1343.31	 2745.33
      8.7310	 3032.00	 3045.88	-1302.81	 2737.83
      8.7570	 3037.00	 3038.44	-1290.37	 2730.38
      8.7830	 3051.00	 3031.05	-1268.99	 2722.99
      8.8090	 3015.00	 3023.72	-1297.66	 2715.65
      8.8350	 2987.00	 3016.44	-1318.38	 2708.36
      8.8610	 3041.00	 3009.22	-1257.16	 2701.13
      8.8870	 2996.00	 3002.05	-1294.99	 2693.95
      8.9130	 3012.00	 2994.94	-1271.88	 2686.83
      8.9390	 2993.00	 2987.88	-1283.82	 2679.76
      8.9650	 2924.00	 2980.87	-1345.81	 2672.74
      8.9910	 2975.00	 2973.92	-1287.86	 2665.78
      9.0170	 3005.00	 2967.02	-1250.96	 2658.87
      9.0430	 2968.00	 2960.18	-1281.11	 2652.02
      9.0690	 2910.00	 2953.39	-1332.33	 2645.22
      9.0950	 2887.00	 2946.65	-1348.59	 2638.47
      9.1210	 2870.00	 2939.97	-1358.91	 2631.78
      9.1470	 2928.00	 2933.34	-1294.28	 2625.14
      9.1730	 2943.00	 2926.77	-1272.71	 2618.56
      9.1990	 2902.00	 2920.25	-1307.19	 2612.03
      9.2250	 2975.00	 2913.78	-1227.72	 2605.55
      9.2510	 2993.00	 2907.37	-1203.31	 2599.13
      9.2770	 2905.00	 2901.01	-1284.95	 2592.76
      9.3030	 2862.00	 2894.71	-1321.64	 2586.44
      9.3290	 2921.00	 2888.45	-1256.39	 2580.18
      9.3550	 2946.00	 2882.26	-1225.20	 2573.98
      9.3810	 2906.00	 2876.11	-1259.05	 2567.82
      9.4070	 2797.00	 2870.02	-1361.96	 2561.72
      9.4330	 2914.00	 2863.99	-1238.93	 2555.67
      9.4590	 2980.00	 2858.01	-1166.95	 2549.68
      9.4850	 2970.00	 2852.08	-1171.02	 2543.74
      9.5110	 2872.00	 2846.20	-1263.14	 2537.86
      9.5370	 2943.00	 2840.38	-1186.32	 2532.02
      9.5630	 2909.00	 2834.61	-1214.55	 2526.24
      9.5890	 2844.00	 2828.90	-1273.84	 2520.52
      9.6150	 2816.00	 2823.24	-1296.18	 2514.85
      9.6410	 2890.00	 2817.63	-1216.57	 2509.23
      9.6670	 2902.00	 2812.08	-1199.01	 2503.66
      9.6930	 2773.00	 2806.57	-1322.51	 2498.15
      9.7190	 2832.00	 2801.13	-1258.07	 2492.69
      9.7450	 2805.00	 2795.73	-1279.67	 2487.28
      9.7710	 2852.00	 2790.39	-1227.33	 2481.93
      9.7970	 2760.00	 2785.10	-1314.04	 2476.62
      9.8230	 2844.00	 2779.86	-1224.80	 2471.38
      9.8490	 2766.00	 2774.68	-1297.62	 2466.18
      9.8750	 2830.00	 2769.55	-1228.49	 2461.04
      9.9010	 2825.00	 2764.47	-1228.41	 2455.95
      9.9270	 2719.00	 2759.45	-1329.39	 2450.91
      9.9530	 2806.00	 2754.48	-1237.42	 2445.93
      9.9790	 2749.00	 2749.56	-1289.50	 2441.00
     10.0050	 2798.00	 2744.69	-1235.63	 2436.12
     10.0310	 2799.00	 2739.88	-1229.81	 2431.29
     10.0570	 2739.00	 2735.11	-1285.05	 2426.51
     10.0830	 2792.00	 2730.41	-1227.34	 2421.79
     10.1090	 2764.00	 2725.75	-1250.69	 2417.12
     10.1350	 2774.00	 2721.14	-1236.08	 2412.50
     10.1610	 2856.00	 2716.59	-1149.53	 2407.94
     10.1870	 2724.00	 2712.09	-1277.03	 2403.42
     10.2130	 2725.00	 2707.64	-1271.58	 2398.96
     10.2390	 2710.00	 2703.24	-1282.18	 2394.55
     10.2650	 2713.00	 2698.90	-1274.83	 2390.19
     10.2910	 2690.00	 2694.60	-1293.54	 2385.88
     10.3170	 2829.00	 2690.36	-1150.30	 2381.62
     10.3430	 2611.00	 2686.17	-1364.11	 2377.42
     10.3690	 2687.00	 2682.03	-1283.97	 2373.26
     10.3950	 2634.00	 2677.94	-1332.88	 2369.16
     10.4210	 2736.00	 2673.90	-1226.84	 2365.11
     10.4470	 2711.00	 2669.92	-1247.85	 2361.11
     10.4730	 2702.00	 2665.98	-1252.92	 2357.16
     10.4990	 2697.00	 2662.10	-1254.03	 2353.26
     10.5250	 2704.00	 2658.26	-1243.20	 2349.41
     10.5510	 2755.00	 2654.48	-1188.42	 2345.62
     10.5770	 2732.00	 2650.75	-1207.69	 2341.87
     10.6030	 2754.00	 2647.07	-1182.01	 2338.17
     10.6290	 2763.00	 2643.44	-1169.38	 2334.53
     10.6550	 2662.00	 2639.86	-1266.80	 2330.93
     10.6810	 2756.00	 2636.33	-1169.27	 2327.39
     10.7070	 2630.00	 2632.85	-1291.79	 2323.89
     10.7330	 2542.00	 2629.42	-1376.36	 2320.44
     10.7590	 2678.00	 2626.04	-1236.98	 2317.05
     10.7850	 2641.00	 2622.71	-1270.65	 2313.70
     10.8110	 2654.00	 2619.43	-1254.37	 2310.41
     10.8370	 2683.00	 2616.20	-1222.14	 2307.16
     10.8630	 2694.00	 2613.02	-1207.96	 2303.96
     10.8890	 2673.00	 2609.89	-1225.83	 2300.81
     10.9150	 2632.00	 2606.81	-1263.75	 2297.72
     10.9410	 2618.00	 2603.78	-1274.71	 2294.67
     10.9670	 2607.00	 2600.79	-1282.73	 2291.66
     10.9930	 2599.00	 2597.86	-1287.79	 2288.71
     11.0190	 2607.00	 2594.97	-1276.91	 2285.81
     11.0450	 2606.00	 2592.13	-1275.07	 2282.95
     11.0710	 2660.00	 2589.34	-1218.28	 2280.15
     11.0970	 2700.00	 2586.60	-1175.54	 2277.39
     11.1230	 2618.00	 2583.91	-1254.85	 2274.68
     11.1490	 2639.00	 2581.27	-1231.21	 2272.02
     11.1750	 2611.00	 2578.67	-1256.61	 2269.40
     11.2010	 2610.00	 2576.12	-1255.06	 2266.84
     11.2270	 2583.00	 2573.62	-1279.56	 2264.32
     11.2530	 2545.00	 2571.22	-1315.16	 2261.85
     11.2790	 2642.00	 2568.82	-1215.76	 2259.43
     11.3050	 2627.00	 2566.46	-1228.40	 2257.05
     11.3310	 2546.00	 2564.15	-1307.09	 2254.72
     11.3570	 2595.00	 2561.89	-1255.83	 2252.44
     11.3830	 2629.00	 2559.70	-1219.64	 2250.20
     11.4090	 2599.00	 2557.53	-1247.47	 2248.02
     11.4350	 2515.00	 2555.41	-1329.35	 2245.87
     11.4610	 2522.00	 2553.34	-1320.28	 2243.78
     11.4870	 2531.00	 2551.31	-1309.25	 2241.73
     11.5130	 2516.00	 2549.33	-1322.27	 2239.73
     11.5390	 2548.00	 2547.39	-1288.33	 2237.77
     11.5650	 2538.00	 2545.50	-1296.44	 2235.86
     11.5910	 2558.00	 2543.66	-1274.60	 2234.00
     11.6170	 2620.00	 2541.86	-1210.80	 2232.18
     11.6430	 2606.00	 2540.11	-1223.05	 2230.40
     11.6690	 2574.00	 2538.41	-1253.34	 2228.68
     11.6950	 2589.00	 2536.74	-1236.68	 2226.99
     11.7210	 2572.00	 2535.13	-1252.07	 2225.36
     11.7470	 2524.00	 2533.56	-1298.50	 2223.76
     11.7730	 2507.00	 2532.03	-1313.97	 2222.22
     11.7990	 2538.00	 2530.55	-1281.49	 2220.71
     11.8250	 2562.00	 2529.12	-1256.06	 2219.25
     11.8510	 2568.00	 2527.73	-1248.67	 2217.84
     11.8770	 2526.00	 2526.38	-1289.32	 2216.47
     11.9030	 2523.00	 2525.08	-1291.02	 2215.14
     11.9290	 2519.00	 2523.82	-1293.76	 2213.86
     11.9550	 2606.00	 2522.61	-1205.54	 2212.62
     11.9810	 2651.00	 2521.44	-1159.37	 2211.43
     12.0070	 2508.00	 2520.31	-1301.25	 2210.27
     12.0330	 2491.00	 2519.23	-1317.16	 2209.17
     12.0590	 2545.00	 2518.19	-1262.12	 2208.10
     12.0850	 2560.00	 2517.19	-1246.13	 2207.08
     12.1110	 2557.00	 2516.24	-1248.17	 2206.10
     12.1370	 2544.00	 2515.32	-1260.26	 2205.16
     12.1630	 2559.00	 2514.46	-1244.39	 2204.27
     12.1890	 2582.00	 2513.63	-1220.57	 2203.41
     12.2150	 2572.00	 2512.85	-1229.79	 2202.60
     12.2410	 2544.00	 2512.11	-1257.05	 2201.83
     12.2670	 2449.00	 2511.41	-1351.35	 2201.11
     12.2930	 2538.00	 2510.75	-1261.69	 2200.42
     12.3190	 2491.00	 2510.14	-1308.07	 2199.78
     12.3450	 2499.00	 2509.56	-1299.50	 2199.18
     12.3710	 2502.00	 2509.03	-1295.97	 2198.62
     12.3970	 2565.00	 2508.54	-1232.48	 2198.10
     12.4230	 2542.00	 2508.09	-1255.03	 2197.62
     12.4490	 2560.00	 2507.68	-1236.62	 2197.18
     12.4750	 2578.00	 2507.31	-1218.25	 2196.78
     12.5010	 2595.00	 2506.99	-1200.93	 2196.42
     12.5270	 2479.00	 2506.70	-1316.64	 2196.11
     12.5530	 2569.00	 2506.46	-1226.39	 2195.83
     12.5790	 2560.00	 2506.25	-1235.19	 2195.59
     12.6050	 2577.00	 2506.08	-1218.02	 2195.39
     12.6310	 2497.00	 2505.96	-1297.89	 2195.23
     12.6570	 2545.00	 2505.87	-1249.81	 2195.11
     12.6830	 2559.00	 2505.82	-1235.76	 2195.03
     12.7090	 2478.00	 2505.81	-1316.75	 2194.99
     12.7350	 2485.00	 2505.84	-1309.78	 2194.99
     12.7610	 2472.00	 2505.91	-1322.85	 2195.02
     12.7870	 2532.00	 2506.02	-1262.96	 2195.10
     12.8130	 2540.00	 2506.17	-1255.11	 2195.21
     12.8390	 2501.00	 2506.36	-1294.29	 2195.36
     12.8650	 2441.00	 2506.58	-1354.52	 2195.54
     12.8910	 2473.00	 2506.84	-1322.78	 2195.77
     12.9170	 2495.00	 2507.14	-1301.08	 2196.03
     12.9430	 2536.00	 2507.48	-1260.42	 2196.33
     12.9690	 2585.00	 2507.86	-1211.79	 2196.67
     12.9950	 2476.00	 2508.27	-1321.21	 2197.04
     13.0210	 2529.00	 2508.72	-1268.66	 2197.45
     13.0470	 2536.00	 2509.20	-1262.14	 2197.90
     13.0730	 2494.00	 2509.73	-1304.67	 2198.38
     13.0990	 2522.00	 2510.29	-1277.23	 2198.90
     13.1250	 2535.00	 2510.89	-1264.82	 2199.46
     13.1510	 2558.00	 2511.52	-1242.46	 2200.05
     13.1770	 2456.00	 2512.19	-1345.13	 2200.68
     13.2030	 2555.00	 2512.89	-1246.83	 2201.34
     13.2290	 2524.00	 2513.64	-1278.57	 2202.04
     13.2550	 2508.00	 2514.41	-1295.35	 2202.77
     13.2810	 2526.00	 2515.22	-1278.16	 2203.54
     13.3070	 2531.00	 2516.08	-1274.02	 2204.34
     13.3330	 2492.00	 2516.96	-1313.90	 2205.18
     13.3590	 2564.00	 2517.88	-1242.82	 2206.05
     13.3850	 2459.00	 2518.83	-1348.77	 2206.96
     13.4110	 2436.00	 2519.82	-1372.76	 2207.89
     13.4370	 2462.00	 2520.84	-1347.78	 2208.87
     13.4630	 2505.00	 2521.90	-1305.84	 2209.87
     13.4890	 2511.00	 2522.99	-1300.93	 2210.91
     13.5150	 2527.00	 2524.11	-1286.05	 2211.99
     13.5410	 2580.00	 2525.27	-1234.21	 2213.09
     13.5670	 2564.00	 2526.46	-1251.40	 2214.23
     13.5930	 2546.00	 2527.68	-1270.62	 2215.40
     13.6190	 2587.00	 2528.94	-1230.88	 2216.60
     13.6450	 2533.00	 2530.23	-1286.17	 2217.84
     13.6710	 2612.00	 2531.55	-1208.49	 2219.11
     13.6970	 2597.00	 2532.91	-1224.85	 2220.41
     13.7230	 2539.00	 2534.30	-1284.23	 2221.74
     13.7490	 2567.00	 2535.72	-1257.65	 2223.10
     13.7750	 2560.00	 2537.17	-1266.11	 2224.49
     13.8010	 2551.00	 2538.65	-1276.59	 2225.92
     13.8270	 2559.00	 2540.17	-1270.11	 2227.37
     13.8530	 2502.00	 2541.72	-1328.65	 2228.86
     13.8790	 2540.00	 2543.29	-1292.23	 2230.37
     13.9050	 2534.00	 2544.91	-1299.84	 2231.92
     13.9310	 2589.00	 2546.55	-1246.48	 2233.50
     13.9570	 2594.00	 2548.22	-1243.16	 2235.10
     13.9830	 2571.00	 2549.92	-1267.86	 2236.74
     14.0090	 2534.00	 2551.65	-1306.59	 2238.40
     14.0350	 2519.00	 2553.42	-1323.36	 2240.10
     14.0610	 2549.00	 2555.21	-1295.15	 2241.82
     14.0870	 2543.00	 2557.03	-1302.97	 2243.57
     14.1130	 2563.00	 2558.89	-1284.83	 2245.35
     14.1390	 2603.00	 2560.77	-1246.71	 2247.16
     14.1650	 2587.00	 2562.68	-1264.62	 2249.00
     14.1910	 2574.00	 2564.62	-1279.56	 2250.87
     14.2170	 2545.00	 2566.60	-1310.53	 2252.76
     14.2430	 2532.00	 2568.60	-1325.53	 2254.68
     14.2690	 2592.00	 2570.62	-1267.56	 2256.63
     14.2950	 2614.00	 2572.68	-1247.62	 2258.60
     14.3210	 2628.00	 2574.77	-1235.71	 2260.61
     14.3470	 2586.00	 2576.88	-1279.82	 2262.64
     14.3730	 2543.00	 2579.02	-1324.96	 2264.69
     14.3990	 2591.00	 2581.19	-1279.13	 2266.78
     14.4250	 2601.00	 2583.39	-1271.33	 2268.88
     14.4510	 2648.00	 2585.62	-1226.56	 2271.02
     14.4770	 2652.00	 2587.87	-1224.81	 2273.18
     14.5030	 2618.00	 2590.15	-1261.09	 2275.36
     14.5290	 2634.00	 2592.46	-1247.40	 2277.58
     14.5550	 2608.00	 2594.79	-1275.73	 2279.81
     14.5810	 2594.00	 2597.15	-1292.09	 2282.07
     14.6070	 2636.00	 2599.54	-1252.48	 2284.36
     14.6330	 2582.00	 2601.96	-1308.90	 2286.67
     14.6590	 2560.00	 2604.40	-1333.34	 2289.01
     14.6850	 2623.00	 2606.87	-1272.81	 2291.37
     14.7110	 2635.00	 2609.36	-1263.30	 2293.75
     14.7370	 2635.00	 2611.88	-1265.82	 2296.16
     14.7630	 2621.00	 2614.43	-1282.36	 2298.59
     14.7890	 2564.00	 2617.00	-1341.94	 2301.04
     14.8150	 2568.00	 2619.59	-1340.53	 2303.52
     14.8410	 2554.00	 2622.22	-1357.15	 2306.02
     14.8670	 2583.00	 2624.86	-1330.80	 2308.54
     14.8930	 2700.00	 2627.54	-1216.47	 2311.09
     14.9190	 2620.00	 2630.23	-1299.17	 2313.65
     14.9450	 2645.00	 2632.96	-1276.90	 2316.24
     14.9710	 2562.00	 2635.70	-1362.64	 2318.86
     14.9970	 2610.00	 2638.48	-1317.42	 2321.49
     15.0230	 2614.00	 2641.27	-1316.21	 2324.14
     15.0490	 2693.00	 2644.09	-1240.03	 2326.82
     15.0750	 2689.00	 2646.94	-1246.88	 2329.52
     15.1010	 2630.00	 2649.81	-1308.75	 2332.24
     15.1270	 2704.00	 2652.70	-1237.64	 2334.98
     15.1530	 2679.00	 2655.62	-1265.56	 2337.74
     15.1790	 2604.00	 2658.56	-1343.50	 2340.52
     15.2050	 2722.00	 2661.53	-1228.47	 2343.32
     15.2310	 2679.00	 2664.52	-1274.46	 2346.14
     15.2570	 2696.00	 2667.53	-1260.47	 2348.98
     15.2830	 2660.00	 2670.57	-1299.51	 2351.83
     15.3090	 2715.00	 2673.63	-1247.57	 2354.71
     15.3350	 2649.00	 2676.72	-1316.66	 2357.61
     15.3610	 2737.00	 2679.82	-1231.76	 2360.53
     15.3870	 2628.00	 2682.96	-1343.89	 2363.46
     15.4130	 2614.00	 2686.11	-1361.05	 2366.42
     15.4390	 2686.00	 2689.29	-1292.23	 2369.39
     15.4650	 2622.00	 2692.49	-1359.43	 2372.38
     15.4910	 2557.00	 2695.72	-1427.65	 2375.39
     15.5170	 2668.00	 2698.96	-1319.90	 2378.41
     15.5430	 2630.00	 2702.23	-1361.17	 2381.45
     15.5690	 2600.00	 2705.53	-1394.47	 2384.51
     15.5950	 2649.00	 2708.96	-1348.90	 2387.59
     15.6210	 2625.00	 2712.30	-1376.24	 2390.69
     15.6470	 2647.00	 2715.67	-1357.61	 2393.80
     15.6730	 2662.00	 2719.06	-1346.00	 2396.92
     15.6990	 2657.00	 2722.47	-1354.41	 2400.07
     15.7250	 2639.00	 2725.96	-1375.90	 2403.23
     15.7510	 2698.00	 2729.42	-1320.36	 2406.40
     15.7770	 2695.00	 2732.91	-1326.84	 2409.59
     15.8030	 2626.00	 2736.41	-1399.35	 2412.80
     15.8290	 2589.00	 2739.94	-1439.88	 2416.02
     15.8550	 2653.00	 2743.50	-1379.44	 2419.26
     15.8810	 2611.00	 2747.08	-1425.02	 2422.51
     15.9070	 2578.00	 2750.68	-1461.62	 2425.78
     15.9330	 2556.00	 2754.31	-1487.25	 2429.06
     15.9590	 2709.00	 2757.97	-1337.90	 2432.35
     15.9850	 2744.00	 2761.64	-1306.58	 2435.66
     16.0110	 2716.00	 2765.35	-1338.29	 2438.99
     16.0370	 2665.00	 2769.08	-1393.02	 2442.32
     16.0630	 2727.00	 2772.84	-1334.77	 2445.67
     16.0890	 2687.00	 2776.62	-1378.56	 2449.04
     16.1150	 2738.00	 2780.43	-1331.37	 2452.41
     16.1410	 2709.00	 2784.27	-1364.20	 2455.80
     16.1670	 2738.00	 2788.13	-1339.07	 2459.20
     16.1930	 2678.00	 2792.02	-1402.96	 2462.62
     16.2190	 2711.00	 2795.94	-1373.88	 2466.05
     16.2450	 2634.00	 2799.90	-1454.83	 2469.49
     16.2710	 2690.00	 2803.88	-1402.81	 2472.94
     16.2970	 2766.00	 2807.89	-1330.83	 2476.40
     16.3230	 2770.00	 2811.93	-1330.87	 2479.87
     16.3490	 2768.00	 2816.00	-1336.94	 2483.36
     16.3750	 2773.00	 2820.11	-1336.05	 2486.85
     16.4010	 2674.00	 2824.25	-1439.19	 2490.36
     16.4270	 2712.00	 2828.43	-1405.37	 2493.88
     16.4530	 2771.00	 2832.64	-1350.58	 2497.41
     16.4790	 2677.00	 2836.89	-1448.82	 2500.95
     16.5050	 2639.00	 2841.17	-1491.11	 2504.50
     16.5310	 2746.00	 2845.50	-1388.44	 2508.06
     16.5570	 2762.00	 2849.86	-1376.80	 2511.62
     16.5830	 2678.00	 2854.27	-1465.21	 2515.20
     16.6090	 2700.00	 2858.72	-1447.66	 2518.79
     16.6350	 2780.00	 2863.21	-1372.15	 2522.39
     16.6610	 2786.00	 2867.76	-1370.69	 2525.99
     16.6870	 2798.00	 2872.35	-1363.29	 2529.61
     16.7130	 2816.00	 2876.99	-1349.93	 2533.23
     16.7390	 2840.00	 2881.68	-1330.62	 2536.86
     16.7650	 2801.00	 2886.43	-1374.37	 2540.50
     16.7910	 2776.00	 2891.24	-1404.18	 2544.15
     16.8170	 2845.00	 2896.11	-1340.05	 2547.81
     16.8430	 2875.00	 2901.05	-1314.98	 2551.47
     16.8690	 2853.00	 2906.05	-1341.98	 2555.14
     16.8950	 2839.00	 2911.12	-1361.05	 2558.82
     16.9210	 2833.00	 2916.26	-1372.20	 2562.50
     16.9470	 2833.00	 2921.48	-1377.42	 2566.20
     16.9730	 2915.00	 2926.79	-1300.73	 2569.90
     16.9990	 2961.00	 2932.18	-1260.12	 2573.60
     17.0250	 2921.00	 2937.67	-1305.61	 2577.31
     17.0510	 2877.00	 2943.25	-1355.19	 2581.03
     17.0770	 2849.00	 2948.93	-1388.87	 2584.76
     17.1030	 2852.00	 2954.73	-1391.67	 2588.49
     17.1290	 2819.00	 2960.64	-1430.58	 2592.22
     17.1550	 2894.00	 2966.68	-1361.62	 2595.96
     17.1810	 2906.00	 2972.85	-1355.78	 2599.71
     17.2070	 2922.00	 2979.15	-1346.09	 2603.46
     17.2330	 2913.00	 2985.61	-1361.55	 2607.21
     17.2590	 2894.00	 2992.23	-1387.17	 2610.98
     17.2850	 2906.00	 2999.01	-1381.95	 2614.74
     17.3110	 2967.00	 3005.98	-1327.92	 2618.51
     17.3370	 2951.00	 3013.14	-1351.08	 2622.29
     17.3630	 2949.00	 3020.51	-1360.45	 2626.06
     17.3890	 3055.00	 3028.09	-1262.03	 2629.84
     17.4150	 2976.00	 3035.91	-1348.85	 2633.63
     17.4410	 3094.00	 3043.98	-1238.92	 2637.42
     17.4670	 3035.00	 3052.32	-1306.26	 2641.21
     17.4930	 3050.00	 3060.94	-1299.88	 2645.01
     17.5190	 3112.00	 3069.87	-1246.81	 2648.80
     17.5450	 3044.00	 3079.11	-1324.05	 2652.60
     17.5710	 3030.00	 3088.70	-1347.64	 2656.41
     17.5970	 3018.00	 3098.65	-1369.58	 2660.21
     17.6230	 3089.00	 3108.97	-1308.91	 2664.02
     17.6490	 3027.00	 3119.71	-1381.64	 2667.83
     17.6750	 3088.00	 3130.86	-1331.80	 2671.64
     17.7010	 3037.00	 3142.45	-1394.39	 2675.46
     17.7270	 3091.00	 3154.50	-1352.44	 2679.27
     17.7530	 3060.00	 3167.02	-1395.96	 2683.09
     17.7790	 3149.00	 3180.02	-1319.96	 2686.90
     17.8050	 3177.00	 3193.50	-1305.44	 2690.72
     17.8310	 3217.00	 3207.46	-1279.40	 2694.54
     17.8570	 3242.00	 3221.88	-1268.82	 2698.36
     17.8830	 3263.00	 3236.75	-1262.69	 2702.18
     17.9090	 3249.00	 3252.02	-1291.96	 2706.00
     17.9350	 3270.00	 3267.64	-1286.58	 2709.82
     17.9610	 3292.00	 3283.53	-1280.47	 2713.65
     17.9870	 3336.00	 3299.59	-1252.53	 2717.47
     18.0130	 3260.00	 3315.71	-1344.65	 2721.29
     18.0390	 3282.00	 3331.74	-1338.68	 2725.11
     18.0650	 3266.00	 3347.51	-1370.45	 2728.93
     18.0910	 3407.00	 3362.83	-1244.77	 2732.74
     18.1170	 3348.00	 3377.48	-1318.42	 2736.56
     18.1430	 3347.00	 3391.25	-1333.19	 2740.38
     18.1690	 3436.00	 3403.91	-1256.84	 2744.19
     18.1950	 3392.00	 3415.23	-1312.17	 2748.01
     18.2210	 3369.00	 3425.02	-1344.96	 2751.82
     18.2470	 3448.00	 3433.11	-1274.05	 2755.63
     18.2730	 3558.00	 3439.37	-1170.31	 2759.44
     18.2990	 3464.00	 3443.74	-1268.68	 2763.24
     18.3250	 3515.00	 3446.19	-1220.13	 2767.04
     18.3510	 3440.00	 3446.76	-1295.70	 2770.85
     18.3770	 3466.00	 3445.56	-1268.50	 2774.64
     18.4030	 3463.00	 3442.73	-1268.67	 2778.44
     18.4290	 3449.00	 3438.45	-1278.39	 2782.23
     18.4550	 3417.00	 3432.92	-1304.86	 2786.02
     18.4810	 3344.00	 3426.39	-1371.32	 2789.81
     18.5070	 3444.00	 3419.06	-1263.99	 2793.59
     18.5330	 3324.00	 3411.15	-1376.09	 2797.37
     18.5590	 3446.00	 3402.88	-1245.82	 2801.15
     18.5850	 3359.00	 3394.42	-1324.36	 2804.92
     18.6110	 3412.00	 3385.93	-1262.87	 2808.69
     18.6370	 3484.00	 3377.55	-1182.49	 2812.45
     18.6630	 3377.00	 3369.39	-1281.32	 2816.21
     18.6890	 3435.00	 3361.52	-1215.46	 2819.97
     18.7150	 3436.00	 3354.02	-1206.96	 2823.72
     18.7410	 3427.00	 3346.94	-1208.88	 2827.46
     18.7670	 3334.00	 3340.31	-1295.25	 2831.20
     18.7930	 3362.00	 3334.14	-1261.08	 2834.94
     18.8190	 3373.00	 3328.45	-1244.39	 2838.67
     18.8450	 3328.00	 3323.23	-1284.17	 2842.39
     18.8710	 3308.00	 3318.49	-1299.42	 2846.11
     18.8970	 3306.00	 3314.20	-1297.13	 2849.83
     18.9230	 3380.00	 3310.35	-1219.29	 2853.54
     18.9490	 3390.00	 3306.92	-1205.86	 2857.24
     18.9750	 3311.00	 3303.90	-1281.84	 2860.93
     19.0010	 3313.00	 3301.27	-1277.21	 2864.62
     19.0270	 3317.00	 3299.00	-1270.94	 2868.31
     19.0530	 3339.00	 3297.08	-1247.01	 2871.98
     19.0790	 3314.00	 3295.47	-1270.41	 2875.66
     19.1050	 3319.00	 3294.17	-1264.11	 2879.32
     19.1310	 3333.00	 3293.16	-1249.10	 2882.98
     19.1570	 3305.00	 3292.41	-1276.35	 2886.63
     19.1830	 3377.00	 3291.91	-1203.85	 2890.27
     19.2090	 3421.00	 3291.65	-1159.59	 2893.90
     19.2350	 3353.00	 3291.60	-1227.54	 2897.53
     19.2610	 3292.00	 3291.75	-1288.69	 2901.15
     19.2870	 3333.00	 3292.09	-1248.03	 2904.76
     19.3130	 3320.00	 3292.61	-1261.55	 2908.37
     19.3390	 3288.00	 3293.29	-1294.23	 2911.96
     19.3650	 3294.00	 3294.13	-1289.07	 2915.55
     19.3910	 3309.00	 3295.10	-1275.04	 2919.13
     19.4170	 3344.00	 3296.21	-1241.15	 2922.70
     19.4430	 3294.00	 3297.44	-1292.38	 2926.27
     19.4690	 3276.00	 3298.78	-1311.72	 2929.82
     19.4950	 3384.00	 3300.24	-1205.17	 2933.37
     19.5210	 3393.00	 3301.79	-1197.72	 2936.91
     19.5470	 3301.00	 3303.43	-1291.37	 2940.43
     19.5730	 3228.00	 3305.16	-1366.09	 2943.95
     19.5990	 3245.00	 3306.96	-1350.90	 2947.46
     19.6250	 3355.00	 3308.85	-1242.78	 2950.96
     19.6510	 3411.00	 3310.80	-1188.73	 2954.45
     19.6770	 3439.00	 3312.81	-1162.75	 2957.93
     19.7030	 3367.00	 3314.89	-1236.82	 2961.40
     19.7290	 3314.00	 3317.02	-1291.95	 2964.86
     19.7550	 3417.00	 3319.20	-1191.14	 2968.31
     19.7810	 3431.00	 3321.43	-1179.37	 2971.75
     19.8070	 3431.00	 3323.70	-1181.64	 2975.18
     19.8330	 3385.00	 3326.02	-1229.96	 2978.60
     19.8590	 3346.00	 3328.37	-1271.31	 2982.01
     19.8850	 3384.00	 3330.76	-1235.70	 2985.41
     19.9110	 3329.00	 3333.19	-1293.12	 2988.80
     19.9370	 3311.00	 3335.64	-1313.58	 2992.18
     19.9630	 3366.00	 3338.12	-1261.06	 2995.54
     19.9890	 3402.00	 3340.63	-1227.56	 2998.90
     20.0150	 3419.00	 3343.16	-1213.10	 3002.24
     20.0410	 3477.00	 3345.71	-1157.65	 3005.57
     20.0670	 3404.00	 3348.28	-1233.22	 3008.90
     20.0930	 3400.00	 3350.88	-1239.81	 3012.20
     20.1190	 3376.00	 3353.48	-1266.42	 3015.50
     20.1450	 3491.00	 3356.11	-1154.05	 3018.79
     20.1710	 3491.00	 3358.75	-1156.69	 3022.06
     20.1970	 3532.00	 3361.40	-1118.34	 3025.32
     20.2230	 3460.00	 3364.06	-1193.00	 3028.57
     20.2490	 3401.00	 3366.73	-1254.67	 3031.81
     20.2750	 3465.00	 3369.41	-1193.35	 3035.04
     20.3010	 3514.00	 3372.10	-1147.04	 3038.25
     20.3270	 3429.00	 3374.80	-1234.74	 3041.45
     20.3530	 3375.00	 3377.50	-1291.44	 3044.64
     20.3790	 3444.00	 3380.21	-1225.15	 3047.81
     20.4050	 3460.00	 3382.92	-1211.86	 3050.97
     20.4310	 3523.00	 3385.63	-1151.57	 3054.12
     20.4570	 3514.00	 3388.35	-1163.29	 3057.26
     20.4830	 3406.00	 3391.07	-1274.01	 3060.38
     20.5090	 3388.00	 3393.79	-1294.73	 3063.49
     20.5350	 3387.00	 3396.51	-1298.45	 3066.59
     20.5610	 3566.00	 3399.23	-1122.17	 3069.67
     20.5870	 3589.00	 3401.94	-1101.88	 3072.74
     20.6130	 3424.00	 3404.66	-1269.60	 3075.79
     20.6390	 3442.00	 3407.38	-1254.31	 3078.83
     20.6650	 3460.00	 3410.09	-1239.03	 3081.86
     20.6910	 3425.00	 3412.80	-1276.73	 3084.87
     20.7170	 3504.00	 3415.50	-1200.44	 3087.87
     20.7430	 3537.00	 3418.20	-1170.14	 3090.86
     20.7690	 3465.00	 3420.90	-1244.84	 3093.83
     20.7950	 3484.00	 3423.59	-1228.52	 3096.79
     20.8210	 3426.00	 3426.27	-1289.21	 3099.73
     20.8470	 3490.00	 3428.95	-1227.89	 3102.66
     20.8730	 3576.00	 3431.62	-1144.56	 3105.57
     20.8990	 3538.00	 3434.29	-1185.23	 3108.47
     20.9250	 3544.00	 3436.95	-1181.88	 3111.35
     20.9510	 3439.00	 3439.60	-1289.53	 3114.22
     20.9770	 3494.00	 3442.24	-1237.18	 3117.07
     21.0030	 3446.00	 3444.87	-1287.81	 3119.91
     21.0290	 3542.00	 3447.50	-1194.44	 3122.74
     21.0550	 3485.00	 3450.12	-1254.05	 3125.55
     21.0810	 3552.00	 3452.72	-1189.66	 3128.34
     21.1070	 3514.00	 3455.32	-1230.26	 3131.12
     21.1330	 3519.00	 3457.91	-1227.85	 3133.88
     21.1590	 3608.00	 3460.49	-1141.43	 3136.63
     21.1850	 3595.00	 3463.06	-1156.99	 3139.36
     21.2110	 3572.00	 3465.61	-1182.55	 3142.07
     21.2370	 3580.00	 3468.16	-1177.10	 3144.77
     21.2630	 3643.00	 3470.70	-1116.64	 3147.46
     21.2890	 3566.00	 3473.22	-1196.16	 3150.12
     21.3150	 3528.00	 3475.74	-1236.67	 3152.77
     21.3410	 3515.00	 3478.24	-1252.18	 3155.41
     21.3670	 3511.00	 3480.73	-1258.67	 3158.03
     21.3930	 3531.00	 3483.20	-1241.14	 3160.63
     21.4190	 3643.00	 3485.67	-1131.61	 3163.22
     21.4450	 3571.00	 3488.12	-1206.06	 3165.79
     21.4710	 3535.00	 3490.56	-1244.50	 3168.34
     21.4970	 3601.00	 3492.99	-1180.93	 3170.88
     21.5230	 3689.00	 3495.41	-1095.35	 3173.40
     21.5490	 3583.00	 3497.81	-1203.75	 3175.91
     21.5750	 3632.00	 3500.20	-1157.14	 3178.39
     21.6010	 3675.00	 3502.57	-1116.51	 3180.86
     21.6270	 3623.00	 3504.93	-1170.87	 3183.32
     21.6530	 3592.00	 3507.28	-1204.22	 3185.75
     21.6790	 3592.00	 3509.61	-1206.55	 3188.17
     21.7050	 3675.00	 3511.93	-1125.87	 3190.57
     21.7310	 3590.00	 3514.24	-1213.18	 3192.96
     21.7570	 3535.00	 3516.53	-1270.47	 3195.33
     21.7830	 3580.00	 3518.80	-1227.74	 3197.68
     21.8090	 3616.00	 3521.06	-1194.00	 3200.01
     21.8350	 3641.00	 3523.31	-1171.25	 3202.33
     21.8610	 3645.00	 3525.54	-1169.48	 3204.63
     21.8870	 3595.00	 3527.76	-1221.70	 3206.91
     21.9130	 3536.00	 3529.96	-1282.90	 3209.17
     21.9390	 3532.00	 3532.15	-1289.08	 3211.42
     21.9650	 3585.00	 3534.32	-1238.25	 3213.64
     21.9910	 3622.00	 3536.47	-1203.41	 3215.85
     22.0170	 3655.00	 3538.61	-1172.55	 3218.04
     22.0430	 3635.00	 3540.73	-1194.67	 3220.22
     22.0690	 3632.00	 3542.84	-1199.78	 3222.38
     22.0950	 3676.00	 3544.93	-1157.87	 3224.51
     22.1210	 3608.00	 3547.01	-1227.95	 3226.63
     22.1470	 3547.00	 3549.07	-1291.01	 3228.74
     22.1730	 3608.00	 3551.11	-1232.05	 3230.82
     22.1990	 3592.00	 3553.14	-1250.08	 3232.89
     22.2250	 3527.00	 3555.15	-1317.09	 3234.93
     22.2510	 3602.00	 3557.15	-1244.09	 3236.96
     22.2770	 3627.00	 3559.13	-1221.06	 3238.97
     22.3030	 3617.00	 3561.09	-1233.03	 3240.96
     22.3290	 3635.00	 3563.03	-1216.97	 3242.94
     22.3550	 3655.00	 3564.96	-1198.90	 3244.89
     22.3810	 3687.00	 3566.87	-1168.81	 3246.83
     22.4070	 3689.00	 3568.77	-1168.70	 3248.75
     22.4330	 3635.00	 3570.64	-1224.58	 3250.65
     22.4590	 3618.00	 3572.50	-1243.44	 3252.53
     22.4850	 3662.00	 3574.35	-1201.28	 3254.39
     22.5110	 3695.00	 3576.17	-1170.11	 3256.23
     22.5370	 3631.00	 3577.98	-1235.92	 3258.06
     22.5630	 3544.00	 3579.77	-1324.71	 3259.86
     22.5890	 3619.00	 3581.55	-1251.48	 3261.65
     22.6150	 3684.00	 3583.30	-1188.24	 3263.42
     22.6410	 3621.00	 3585.04	-1252.98	 3265.17
     22.6670	 3661.00	 3586.76	-1214.70	 3266.90
     22.6930	 3675.00	 3588.47	-1202.40	 3268.61
     22.7190	 3723.00	 3590.15	-1156.09	 3270.30
     22.7450	 3659.00	 3591.82	-1221.76	 3271.97
     22.7710	 3580.00	 3593.47	-1302.41	 3273.62
     22.7970	 3573.00	 3595.10	-1311.04	 3275.26
     22.8230	 3615.00	 3596.72	-1270.66	 3276.87
     22.8490	 3544.00	 3598.31	-1343.25	 3278.47
     22.8750	 3647.00	 3599.89	-1241.83	 3280.04
     22.9010	 3694.00	 3601.45	-1196.39	 3281.60
     22.9270	 3723.00	 3603.00	-1168.94	 3283.14
     22.9530	 3689.00	 3604.52	-1204.46	 3284.66
     22.9790	 3687.00	 3606.03	-1207.97	 3286.15
     23.0050	 3619.00	 3607.52	-1277.45	 3287.63
     23.0310	 3623.00	 3608.99	-1274.92	 3289.09
     23.0570	 3701.00	 3610.44	-1198.38	 3290.53
     23.0830	 3565.00	 3611.87	-1335.81	 3291.95
     23.1090	 3568.00	 3613.29	-1334.22	 3293.35
     23.1350	 3616.00	 3614.68	-1287.62	 3294.74
     23.1610	 3609.00	 3616.06	-1296.00	 3296.10
     23.1870	 3637.00	 3617.42	-1269.36	 3297.44
     23.2130	 3620.00	 3618.76	-1287.70	 3298.76
     23.2390	 3620.00	 3620.08	-1289.02	 3300.06
     23.2650	 3707.00	 3621.39	-1203.33	 3301.35
     23.2910	 3739.00	 3622.67	-1172.61	 3302.61
     23.3170	 3734.00	 3623.94	-1178.88	 3303.85
     23.3430	 3594.00	 3625.19	-1320.13	 3305.08
     23.3690	 3543.00	 3626.42	-1372.36	 3306.28
     23.3950	 3602.00	 3627.63	-1314.57	 3307.46
     23.4210	 3498.00	 3628.82	-1419.76	 3308.63
     23.4470	 3652.00	 3629.99	-1266.93	 3309.77
     23.4730	 3587.00	 3631.15	-1333.09	 3310.90
     23.4990	 3758.00	 3632.29	-1163.22	 3312.00
     23.5250	 3660.00	 3633.40	-1262.34	 3313.08
     23.5510	 3701.00	 3634.50	-1222.44	 3314.15
     23.5770	 3714.00	 3635.58	-1210.52	 3315.19
     23.6030	 3682.00	 3636.65	-1243.59	 3316.22
     23.6290	 3586.00	 3637.69	-1340.63	 3317.22
     23.6550	 3575.00	 3638.71	-1352.65	 3318.21
     23.6810	 3742.00	 3639.72	-1186.66	 3319.17
     23.7070	 3586.00	 3640.70	-1343.64	 3320.12
     23.7330	 3552.00	 3641.67	-1378.61	 3321.04
     23.7590	 3589.00	 3642.62	-1342.56	 3321.95
     23.7850	 3639.00	 3643.55	-1293.49	 3322.83
     23.8110	 3650.00	 3644.46	-1283.40	 3323.69
     23.8370	 3609.00	 3645.35	-1325.29	 3324.54
     23.8630	 3623.00	 3646.23	-1312.16	 3325.36
     23.8890	 3699.00	 3647.08	-1237.02	 3326.17
     23.9150	 3657.00	 3647.91	-1279.85	 3326.95
     23.9410	 3528.00	 3648.73	-1409.67	 3327.72
     23.9670	 3635.00	 3649.53	-1303.46	 3328.46
     23.9930	 3606.00	 3650.30	-1333.24	 3329.18
     24.0190	 3560.00	 3651.06	-1380.00	 3329.89
     24.0450	 3611.00	 3651.80	-1329.74	 3330.57
     24.0710	 3570.00	 3652.53	-1371.46	 3331.23
     24.0970	 3639.00	 3653.23	-1303.17	 3331.88
     24.1230	 3559.00	 3653.91	-1383.85	 3332.50
     24.1490	 3595.00	 3654.58	-1348.51	 3333.10
     24.1750	 3605.00	 3655.22	-1339.16	 3333.69
     24.2010	 3592.00	 3655.85	-1352.79	 3334.25
     24.2270	 3592.00	 3656.46	-1353.40	 3334.79
     24.2530	 3599.00	 3657.05	-1346.99	 3335.32
     24.2790	 3597.00	 3657.62	-1349.56	 3335.82
     24.3050	 3597.00	 3658.18	-1350.11	 3336.30
     24.3310	 3627.00	 3658.71	-1320.65	 3336.77
     24.3570	 3643.00	 3659.22	-1305.16	 3337.21
     24.3830	 3626.00	 3659.72	-1322.66	 3337.63
     24.4090	 3668.00	 3660.20	-1281.14	 3338.03
     24.4350	 3631.00	 3660.66	-1318.59	 3338.42
     24.4610	 3638.00	 3661.10	-1312.03	 3338.78
     24.4870	 3655.00	 3661.52	-1295.46	 3339.12
     24.5130	 3655.00	 3661.92	-1295.86	 3339.44
     24.5390	 3632.00	 3662.30	-1319.24	 3339.74
     24.5650	 3582.00	 3662.67	-1369.61	 3340.03
     24.5910	 3621.00	 3663.02	-1330.95	 3340.29
     24.6170	 3609.00	 3663.34	-1343.28	 3340.53
     24.6430	 3543.00	 3663.65	-1409.59	 3340.75
     24.6690	 3579.00	 3663.94	-1373.88	 3340.96
     24.6950	 3670.00	 3664.22	-1283.15	 3341.14
     24.7210	 3694.00	 3664.47	-1259.41	 3341.30
     24.7470	 3692.00	 3664.71	-1261.65	 3341.44
     24.7730	 3743.00	 3664.92	-1210.86	 3341.56
     24.7990	 3702.00	 3665.12	-1252.06	 3341.67
     24.8250	 3660.00	 3665.30	-1294.24	 3341.75
     24.8510	 3645.00	 3665.47	-1309.41	 3341.81
     24.8770	 3535.00	 3665.61	-1419.55	 3341.86
     24.9030	 3563.00	 3665.74	-1391.68	 3341.88
     24.9290	 3646.00	 3665.85	-1308.79	 3341.88
     24.9550	 3665.00	 3665.94	-1289.88	 3341.87
     24.9810	 3658.00	 3666.01	-1296.95	 3341.83
     25.0070	 3663.00	 3666.06	-1292.00	 3341.77
     25.0330	 3713.00	 3666.10	-1242.04	 3341.70
     25.0590	 3701.00	 3666.12	-1254.06	 3341.60
     25.0850	 3669.00	 3666.12	-1286.06	 3341.49
     25.1110	 3621.00	 3666.10	-1334.04	 3341.35
     25.1370	 3536.00	 3666.07	-1419.01	 3341.20
     25.1630	 3567.00	 3666.02	-1387.95	 3341.02
     25.1890	 3672.00	 3665.95	-1282.88	 3340.83
     25.2150	 3655.00	 3665.86	-1299.80	 3340.61
     25.2410	 3535.00	 3665.75	-1419.69	 3340.38
     25.2670	 3554.00	 3665.63	-1400.57	 3340.13
     25.2930	 3660.00	 3665.49	-1294.43	 3339.86
     25.3190	 3620.00	 3665.33	-1334.27	 3339.57
     25.3450	 3581.00	 3665.16	-1373.10	 3339.25
     25.3710	 3544.00	 3664.97	-1409.91	 3338.92
     25.3970	 3607.00	 3664.76	-1346.70	 3338.57
     25.4230	 3634.00	 3664.53	-1319.47	 3338.20
     25.4490	 3536.00	 3664.29	-1417.23	 3337.82
     25.4750	 3586.00	 3664.03	-1366.97	 3337.41
     25.5010	 3639.00	 3663.76	-1313.69	 3336.98
     25.5270	 3607.00	 3663.46	-1345.40	 3336.53
     25.5530	 3641.00	 3663.15	-1311.09	 3336.07
     25.5790	 3655.00	 3662.83	-1296.76	 3335.58
     25.6050	 3589.00	 3662.48	-1362.42	 3335.08
     25.6310	 3620.00	 3662.12	-1331.06	 3334.56
     25.6570	 3566.00	 3661.75	-1384.69	 3334.01
     25.6830	 3613.00	 3661.36	-1337.29	 3333.45
     25.7090	 3664.00	 3660.95	-1285.89	 3332.87
     25.7350	 3589.00	 3660.52	-1360.46	 3332.27
     25.7610	 3721.00	 3660.08	-1228.02	 3331.65
     25.7870	 3535.00	 3659.63	-1413.57	 3331.02
     25.8130	 3613.00	 3659.16	-1335.10	 3330.36
     25.8390	 3672.00	 3658.67	-1275.61	 3329.69
     25.8650	 3674.00	 3658.17	-1273.10	 3328.99
     25.8910	 3591.00	 3657.65	-1355.59	 3328.28
     25.9170	 3624.00	 3657.11	-1322.05	 3327.55
     25.9430	 3522.00	 3656.57	-1423.50	 3326.80
     25.9690	 3620.00	 3656.00	-1324.94	 3326.03
     25.9950	 3638.00	 3655.42	-1306.36	 3325.24
     26.0210	 3590.00	 3654.83	-1353.77	 3324.43
     26.0470	 3551.00	 3654.22	-1392.16	 3323.61
     26.0730	 3635.00	 3653.60	-1307.53	 3322.76
     26.0990	 3599.00	 3652.96	-1342.90	 3321.90
     26.1250	 3586.00	 3652.31	-1355.24	 3321.02
     26.1510	 3599.00	 3651.64	-1341.58	 3320.12
     26.1770	 3514.00	 3650.96	-1425.90	 3319.21
     26.2030	 3584.00	 3650.26	-1355.20	 3318.27
     26.2290	 3678.00	 3649.56	-1260.49	 3317.32
     26.2550	 3744.00	 3648.83	-1193.77	 3316.35
     26.2810	 3678.00	 3648.10	-1259.04	 3315.36
     26.3070	 3626.00	 3647.35	-1310.29	 3314.35
     26.3330	 3551.00	 3646.59	-1384.53	 3313.32
     26.3590	 3654.00	 3645.81	-1280.75	 3312.28
     26.3850	 3553.00	 3645.02	-1380.96	 3311.22
     26.4110	 3547.00	 3644.22	-1386.16	 3310.13
     26.4370	 3634.00	 3643.41	-1298.35	 3309.04
     26.4630	 3538.00	 3642.58	-1393.52	 3307.92
     26.4890	 3535.00	 3641.75	-1395.69	 3306.79
     26.5150	 3624.00	 3640.90	-1305.84	 3305.64
     26.5410	 3536.00	 3640.04	-1392.97	 3304.47
     26.5670	 3585.00	 3639.16	-1343.10	 3303.28
     26.5930	 3569.00	 3638.28	-1358.22	 3302.07
     26.6190	 3584.00	 3637.38	-1342.32	 3300.85
     26.6450	 3583.00	 3636.48	-1342.42	 3299.61
     26.6710	 3612.00	 3635.56	-1312.50	 3298.35
     26.6970	 3499.00	 3634.64	-1424.57	 3297.08
     26.7230	 3591.00	 3633.71	-1331.65	 3295.79
     26.7490	 3548.00	 3632.76	-1373.70	 3294.48
     26.7750	 3598.00	 3631.81	-1322.75	 3293.15
     26.8010	 3580.00	 3630.84	-1339.78	 3291.81
     26.8270	 3578.00	 3629.87	-1340.81	 3290.45
     26.8530	 3592.00	 3628.89	-1325.83	 3289.07
     26.8790	 3687.00	 3627.90	-1229.84	 3287.67
     26.9050	 3621.00	 3626.90	-1294.84	 3286.26
     26.9310	 3642.00	 3625.89	-1272.83	 3284.83
     26.9570	 3625.00	 3624.88	-1288.81	 3283.38
     26.9830	 3539.00	 3623.85	-1373.79	 3281.92
     27.0090	 3521.00	 3622.82	-1390.76	 3280.44
     27.0350	 3523.00	 3621.79	-1387.73	 3278.95
     27.0610	 3596.00	 3620.75	-1313.68	 3277.43
     27.0870	 3649.00	 3619.70	-1259.64	 3275.90
     27.1130	 3589.00	 3618.65	-1318.58	 3274.35
     27.1390	 3543.00	 3617.59	-1363.53	 3272.79
     27.1650	 3573.00	 3616.53	-1332.46	 3271.21
     27.1910	 3637.00	 3615.46	-1267.40	 3269.62
     27.2170	 3648.00	 3614.39	-1255.33	 3268.00
     27.2430	 3632.00	 3613.32	-1270.26	 3266.38
     27.2690	 3632.00	 3612.24	-1269.18	 3264.73
     27.2950	 3634.00	 3611.17	-1266.10	 3263.07
     27.3210	 3569.00	 3610.09	-1330.02	 3261.39
     27.3470	 3553.00	 3609.01	-1344.95	 3259.70
     27.3730	 3595.00	 3607.93	-1301.87	 3257.99
     27.3990	 3524.00	 3606.85	-1371.79	 3256.26
     27.4250	 3485.00	 3605.77	-1409.71	 3254.52
     27.4510	 3527.00	 3604.69	-1366.63	 3252.77
     27.4770	 3545.00	 3603.62	-1347.56	 3250.99
     27.5030	 3526.00	 3602.55	-1365.48	 3249.20
     27.5290	 3567.00	 3601.48	-1323.42	 3247.40
     27.5550	 3622.00	 3600.42	-1267.35	 3245.58
     27.5810	 3609.00	 3599.36	-1279.30	 3243.75
     27.6070	 3567.00	 3598.31	-1320.25	 3241.90
     27.6330	 3520.00	 3597.26	-1366.20	 3240.03
     27.6590	 3535.00	 3596.23	-1350.17	 3238.15
     27.6850	 3575.00	 3595.20	-1309.14	 3236.25
     27.7110	 3569.00	 3594.18	-1314.12	 3234.34
     27.7370	 3550.00	 3593.18	-1332.11	 3232.41
     27.7630	 3615.00	 3592.18	-1266.12	 3230.47
     27.7890	 3662.00	 3591.20	-1218.14	 3228.51
     27.8150	 3614.00	 3590.24	-1265.18	 3226.54
     27.8410	 3521.00	 3589.29	-1357.23	 3224.55
     27.8670	 3575.00	 3588.36	-1302.29	 3222.55
     27.8930	 3544.00	 3587.44	-1332.38	 3220.54
     27.9190	 3497.00	 3586.55	-1378.49	 3218.51
     27.9450	 3638.00	 3585.68	-1236.62	 3216.46
     27.9710	 3586.00	 3584.83	-1287.77	 3214.40
     27.9970	 3542.00	 3584.01	-1330.95	 3212.32
     28.0230	 3436.00	 3583.21	-1436.15	 3210.23
     28.0490	 3437.00	 3582.45	-1434.39	 3208.13
     28.0750	 3477.00	 3581.71	-1393.65	 3206.01
     28.1010	 3441.00	 3581.01	-1428.95	 3203.88
     28.1270	 3614.00	 3580.34	-1255.28	 3201.73
     28.1530	 3545.00	 3579.71	-1323.65	 3199.57
     28.1790	 3400.00	 3579.13	-1468.06	 3197.40
     28.2050	 3553.00	 3578.58	-1314.52	 3195.21
     28.2310	 3522.00	 3578.08	-1345.02	 3193.01
     28.2570	 3490.00	 3577.63	-1376.57	 3190.79
     28.2830	 3542.00	 3577.23	-1324.17	 3188.56
     28.3090	 3657.00	 3576.89	-1208.83	 3186.32
     28.3350	 3636.00	 3576.61	-1229.55	 3184.06
     28.3610	 3489.00	 3576.39	-1376.33	 3181.79
     28.3870	 3557.00	 3576.24	-1308.17	 3179.51
     28.4130	 3483.00	 3576.15	-1382.09	 3177.21
     28.4390	 3463.00	 3576.15	-1402.09	 3174.90
     28.4650	 3507.00	 3576.23	-1358.16	 3172.57
     28.4910	 3557.00	 3576.39	-1308.33	 3170.24
     28.5170	 3492.00	 3576.64	-1373.58	 3167.89
     28.5430	 3497.00	 3576.99	-1368.93	 3165.52
     28.5690	 3516.00	 3577.45	-1350.39	 3163.15
     28.5950	 3535.00	 3578.01	-1331.95	 3160.76
     28.6210	 3615.00	 3578.70	-1252.63	 3158.35
     28.6470	 3609.00	 3579.51	-1259.44	 3155.94
     28.6730	 3538.00	 3580.45	-1331.39	 3153.51
     28.6990	 3632.00	 3581.54	-1238.47	 3151.07
     28.7250	 3540.00	 3582.77	-1331.71	 3148.62
     28.7510	 3464.00	 3584.17	-1409.11	 3146.15
     28.7770	 3566.00	 3585.75	-1308.69	 3143.67
     28.8030	 3545.00	 3587.51	-1331.45	 3141.18
     28.8290	 3587.00	 3589.46	-1291.40	 3138.68
     28.8550	 3535.00	 3591.63	-1345.57	 3136.17
     28.8810	 3531.00	 3594.03	-1351.96	 3133.64
     28.9070	 3548.00	 3596.66	-1337.60	 3131.10
     28.9330	 3534.00	 3599.55	-1354.49	 3128.55
     28.9590	 3633.00	 3602.72	-1258.66	 3125.99
     28.9850	 3614.00	 3606.18	-1281.12	 3123.41
     29.0110	 3620.00	 3609.96	-1278.89	 3120.82
     29.0370	 3573.00	 3614.07	-1330.01	 3118.23
     29.0630	 3619.00	 3618.54	-1288.48	 3115.62
     29.0890	 3632.00	 3623.40	-1280.34	 3112.99
     29.1150	 3570.00	 3628.67	-1347.61	 3110.36
     29.1410	 3499.00	 3634.39	-1424.32	 3107.72
     29.1670	 3536.00	 3640.57	-1393.51	 3105.06
     29.1930	 3552.00	 3647.26	-1384.20	 3102.40
     29.2190	 3581.00	 3654.49	-1362.42	 3099.72
     29.2450	 3655.00	 3662.29	-1296.23	 3097.03
     29.2710	 3615.00	 3670.71	-1344.64	 3094.33
     29.2970	 3625.00	 3679.78	-1343.72	 3091.62
     29.3230	 3665.00	 3689.55	-1313.48	 3088.90
     29.3490	 3682.00	 3700.06	-1306.99	 3086.16
     29.3750	 3668.00	 3711.35	-1332.29	 3083.42
     29.4010	 3707.00	 3723.48	-1305.41	 3080.67
     29.4270	 3713.00	 3736.48	-1312.42	 3077.90
     29.4530	 3757.00	 3750.40	-1282.34	 3075.13
     29.4790	 3764.00	 3765.30	-1290.23	 3072.34
     29.5050	 3818.00	 3781.19	-1252.13	 3069.54
     29.5310	 3780.00	 3798.13	-1307.07	 3066.74
     29.5570	 3754.00	 3816.14	-1351.08	 3063.92
     29.5830	 3747.00	 3835.24	-1377.17	 3061.10
     29.6090	 3888.00	 3855.42	-1256.36	 3058.26
     29.6350	 3872.00	 3876.69	-1293.63	 3055.41
     29.6610	 3863.00	 3899.00	-1324.94	 3052.56
     29.6870	 3877.00	 3922.30	-1334.24	 3049.69
     29.7130	 3908.00	 3946.49	-1327.43	 3046.81
     29.7390	 4036.00	 3971.45	-1224.39	 3043.93
     29.7650	 4023.00	 3997.01	-1262.95	 3041.03
     29.7910	 4021.00	 4022.94	-1290.88	 3038.13
     29.8170	 4088.00	 4048.98	-1249.92	 3035.22
     29.8430	 4075.00	 4074.80	-1288.74	 3032.29
     29.8690	 4021.00	 4100.04	-1367.98	 3029.36
     29.8950	 4023.00	 4124.25	-1390.19	 3026.42
     29.9210	 4074.00	 4147.00	-1361.93	 3023.47
     29.9470	 4123.00	 4167.77	-1333.71	 3020.51
     29.9730	 4176.00	 4186.08	-1299.02	 3017.54
     29.9990	 4210.00	 4201.45	-1280.39	 3014.56
     30.0250	 4204.00	 4213.43	-1298.37	 3011.57
     30.0510	 4190.00	 4221.64	-1320.58	 3008.58
     30.0770	 4204.00	 4225.77	-1310.71	 3005.58
     30.1030	 4188.00	 4225.65	-1326.59	 3002.56
     30.1290	 4191.00	 4221.19	-1319.13	 2999.54
     30.1550	 4243.00	 4212.45	-1258.39	 2996.51
     30.1810	 4224.00	 4199.59	-1264.53	 2993.47
     30.2070	 4208.00	 4182.90	-1263.84	 2990.43
     30.2330	 4190.00	 4162.73	-1261.67	 2987.37
     30.2590	 4083.00	 4139.52	-1345.46	 2984.31
     30.2850	 4073.00	 4113.75	-1329.69	 2981.24
     30.3110	 4164.00	 4085.91	-1210.85	 2978.16
     30.3370	 4156.00	 4056.48	-1189.42	 2975.08
     30.3630	 4150.00	 4025.94	-1164.88	 2971.98
     30.3890	 4157.00	 3994.72	-1126.66	 2968.88
     30.4150	 4008.00	 3963.20	-1244.14	 2965.77
     30.4410	 3970.00	 3931.71	-1250.65	 2962.65
     30.4670	 3865.00	 3900.54	-1324.48	 2959.53
     30.4930	 3971.00	 3869.92	-1187.86	 2956.40
     30.5190	 3971.00	 3840.03	-1157.97	 2953.26
     30.5450	 3907.00	 3811.01	-1192.95	 2950.11
     30.5710	 3834.00	 3782.95	-1237.89	 2946.96
     30.5970	 3878.00	 3755.93	-1166.87	 2943.80
     30.6230	 3830.00	 3729.99	-1188.93	 2940.63
     30.6490	 3727.00	 3705.14	-1267.08	 2937.45
     30.6750	 3700.00	 3681.38	-1270.32	 2934.27
     30.7010	 3720.00	 3658.70	-1227.64	 2931.08
     30.7270	 3709.00	 3637.08	-1217.01	 2927.89
     30.7530	 3663.00	 3616.47	-1242.41	 2924.68
     30.7790	 3663.00	 3596.85	-1222.79	 2921.48
     30.8050	 3670.00	 3578.17	-1197.11	 2918.26
     30.8310	 3726.00	 3560.38	-1123.32	 2915.04
     30.8570	 3567.00	 3543.45	-1265.39	 2911.81
     30.8830	 3533.00	 3527.32	-1283.26	 2908.58
     30.9090	 3536.00	 3511.95	-1264.89	 2905.34
     30.9350	 3509.00	 3497.29	-1277.23	 2902.09
     30.9610	 3449.00	 3483.31	-1323.25	 2898.84
     30.9870	 3475.00	 3469.97	-1283.90	 2895.58
     31.0130	 3481.00	 3457.21	-1265.15	 2892.32
     31.0390	 3426.00	 3445.02	-1307.96	 2889.05
     31.0650	 3525.00	 3433.35	-1197.29	 2885.77
     31.0910	 3443.00	 3422.17	-1268.11	 2882.49
     31.1170	 3368.00	 3411.45	-1332.39	 2879.20
     31.1430	 3405.00	 3401.17	-1285.10	 2875.91
     31.1690	 3445.00	 3391.28	-1235.22	 2872.61
     31.1950	 3339.00	 3381.78	-1331.72	 2869.31
     31.2210	 3430.00	 3372.63	-1231.57	 2866.00
     31.2470	 3389.00	 3363.81	-1263.75	 2862.69
     31.2730	 3336.00	 3355.31	-1308.25	 2859.37
     31.2990	 3365.00	 3347.10	-1271.04	 2856.04
     31.3250	 3241.00	 3339.17	-1387.11	 2852.71
     31.3510	 3379.00	 3331.50	-1241.44	 2849.38
     31.3770	 3306.00	 3324.07	-1307.01	 2846.04
     31.4030	 3264.00	 3316.87	-1341.81	 2842.70
     31.4290	 3320.00	 3309.89	-1278.83	 2839.35
     31.4550	 3294.00	 3303.12	-1298.06	 2836.00
     31.4810	 3312.00	 3296.54	-1273.47	 2832.64
     31.5070	 3245.00	 3290.14	-1334.07	 2829.28
     31.5330	 3287.00	 3283.91	-1285.85	 2825.91
     31.5590	 3255.00	 3277.84	-1311.78	 2822.54
     31.5850	 3212.00	 3271.94	-1348.87	 2819.17
     31.6110	 3225.00	 3266.17	-1330.11	 2815.79
     31.6370	 3282.00	 3260.55	-1267.49	 2812.41
     31.6630	 3248.00	 3255.06	-1296.00	 2809.02
     31.6890	 3283.00	 3249.70	-1255.64	 2805.63
     31.7150	 3334.00	 3244.45	-1199.39	 2802.24
     31.7410	 3291.00	 3239.33	-1237.26	 2798.84
     31.7670	 3216.00	 3234.31	-1307.25	 2795.44
     31.7930	 3196.00	 3229.39	-1322.33	 2792.03
     31.8190	 3214.00	 3224.58	-1299.52	 2788.62
     31.8450	 3221.00	 3219.86	-1287.80	 2785.21
     31.8710	 3210.00	 3215.24	-1294.18	 2781.80
     31.8970	 3344.00	 3210.71	-1155.64	 2778.38
     31.9230	 3197.00	 3206.26	-1298.20	 2774.96
     31.9490	 3173.00	 3201.89	-1317.83	 2771.53
     31.9750	 3237.00	 3197.61	-1249.54	 2768.10
     32.0010	 3213.00	 3193.40	-1269.34	 2764.67
     32.0270	 3280.00	 3189.26	-1198.20	 2761.24
     32.0530	 3221.00	 3185.20	-1253.14	 2757.80
     32.0790	 3127.00	 3181.21	-1343.15	 2754.36
     32.1050	 3231.00	 3177.29	-1235.23	 2750.92
     32.1310	 3262.00	 3173.44	-1200.38	 2747.47
     32.1570	 3258.00	 3169.65	-1200.59	 2744.02
     32.1830	 3201.00	 3165.93	-1253.87	 2740.57
     32.2090	 3183.00	 3162.27	-1268.21	 2737.12
     32.2350	 3254.00	 3158.68	-1193.61	 2733.67
     32.2610	 3302.00	 3155.14	-1142.08	 2730.21
     32.2870	 3262.00	 3151.66	-1178.60	 2726.75
     32.3130	 3217.00	 3148.25	-1220.19	 2723.29
     32.3390	 3190.00	 3144.89	-1243.83	 2719.82
     32.3650	 3225.00	 3141.59	-1205.53	 2716.36
     32.3910	 3232.00	 3138.35	-1195.29	 2712.89
     32.4170	 3182.00	 3135.17	-1242.10	 2709.42
     32.4430	 3177.00	 3132.04	-1243.98	 2705.95
     32.4690	 3195.00	 3128.97	-1222.91	 2702.47
     32.4950	 3213.00	 3125.96	-1201.90	 2699.00
     32.5210	 3161.00	 3123.01	-1250.94	 2695.52
     32.5470	 3094.00	 3120.11	-1315.05	 2692.05
     32.5730	 3138.00	 3117.27	-1268.21	 2688.57
     32.5990	 3215.00	 3114.49	-1188.43	 2685.09
     32.6250	 3221.00	 3111.77	-1179.71	 2681.60
     32.6510	 3191.00	 3109.11	-1207.05	 2678.12
     32.6770	 3154.00	 3106.51	-1241.44	 2674.64
     32.7030	 3127.00	 3103.96	-1265.90	 2671.15
     32.7290	 3151.00	 3101.49	-1239.42	 2667.66
     32.7550	 3147.00	 3099.07	-1241.01	 2664.18
     32.7810	 3151.00	 3096.71	-1234.65	 2660.69
     32.8070	 3167.00	 3094.43	-1216.36	 2657.20
     32.8330	 3162.00	 3092.21	-1219.14	 2653.71
     32.8590	 3103.00	 3090.05	-1275.99	 2650.22
     32.8850	 3077.00	 3087.96	-1299.90	 2646.73
     32.9110	 3132.00	 3085.95	-1242.89	 2643.24
     32.9370	 3142.00	 3084.01	-1230.94	 2639.74
     32.9630	 3135.00	 3082.14	-1236.08	 2636.25
     32.9890	 3202.00	 3080.35	-1167.28	 2632.76
     33.0150	 3208.00	 3078.63	-1159.57	 2629.27
     33.0410	 3056.00	 3077.00	-1309.94	 2625.77
     33.0670	 3004.00	 3075.45	-1360.38	 2622.28
     33.0930	 3073.00	 3073.98	-1289.92	 2618.78
     33.1190	 3125.00	 3072.60	-1236.54	 2615.29
     33.1450	 3083.00	 3071.32	-1277.25	 2611.80
     33.1710	 3108.00	 3070.12	-1251.06	 2608.31
     33.1970	 3125.00	 3069.03	-1232.97	 2604.81
     33.2230	 3218.00	 3068.04	-1138.97	 2601.32
     33.2490	 3155.00	 3067.15	-1201.08	 2597.83
     33.2750	 3126.00	 3066.37	-1229.30	 2594.33
     33.3010	 3061.00	 3065.70	-1293.64	 2590.84
     33.3270	 3031.00	 3065.15	-1323.08	 2587.35
     33.3530	 3030.00	 3064.72	-1323.66	 2583.86
     33.3790	 3081.00	 3064.41	-1272.35	 2580.37
     33.4050	 3144.00	 3064.24	-1209.18	 2576.88
     33.4310	 3146.00	 3064.21	-1207.15	 2573.39
     33.4570	 3083.00	 3064.32	-1270.26	 2569.91
     33.4830	 3193.00	 3064.58	-1160.51	 2566.42
     33.5090	 3087.00	 3064.99	-1266.93	 2562.94
     33.5350	 3111.00	 3065.57	-1243.51	 2559.45
     33.5610	 3107.00	 3066.31	-1248.25	 2555.97
     33.5870	 3133.00	 3067.24	-1223.18	 2552.48
     33.6130	 3151.00	 3068.35	-1206.29	 2549.00
     33.6390	 3092.00	 3069.66	-1266.59	 2545.52
     33.6650	 3158.00	 3071.17	-1202.11	 2542.05
     33.6910	 3104.00	 3072.89	-1257.83	 2538.57
     33.7170	 3107.00	 3074.84	-1256.78	 2535.09
     33.7430	 3132.00	 3077.03	-1233.97	 2531.62
     33.7690	 3097.00	 3079.47	-1271.41	 2528.15
     33.7950	 3185.00	 3082.17	-1186.11	 2524.68
     33.8210	 3226.00	 3085.14	-1148.08	 2521.21
     33.8470	 3160.00	 3088.40	-1217.34	 2517.74
     33.8730	 3068.00	 3091.97	-1312.91	 2514.27
     33.8990	 3037.00	 3095.86	-1347.80	 2510.81
     33.9250	 3150.00	 3100.10	-1239.03	 2507.35
     33.9510	 3132.00	 3104.69	-1261.63	 2503.89
     33.9770	 3188.00	 3109.66	-1210.60	 2500.43
     34.0030	 3143.00	 3115.03	-1260.97	 2496.98
     34.0290	 3116.00	 3120.82	-1293.76	 2493.52
     34.0550	 3227.00	 3127.07	-1189.01	 2490.07
     34.0810	 3077.00	 3133.79	-1345.73	 2486.63
     34.1070	 3242.00	 3141.02	-1187.96	 2483.18
     34.1330	 3226.00	 3148.78	-1211.72	 2479.74
     34.1590	 3226.00	 3157.11	-1220.05	 2476.29
     34.1850	 3204.00	 3166.05	-1250.99	 2472.86
     34.2110	 3161.00	 3175.63	-1303.57	 2469.42
     34.2370	 3323.00	 3185.89	-1151.82	 2465.99
     34.2630	 3275.00	 3196.87	-1210.81	 2462.56
     34.2890	 3328.00	 3208.63	-1169.57	 2459.13
     34.3150	 3256.00	 3221.21	-1254.15	 2455.70
     34.3410	 3273.00	 3234.67	-1250.60	 2452.28
     34.3670	 3329.00	 3249.06	-1208.99	 2448.86
     34.3930	 3229.00	 3264.44	-1324.38	 2445.45
     34.4190	 3276.00	 3280.88	-1293.82	 2442.03
     34.4450	 3321.00	 3298.46	-1266.40	 2438.62
     34.4710	 3426.00	 3317.24	-1180.18	 2435.21
     34.4970	 3377.00	 3337.31	-1249.25	 2431.81
     34.5230	 3377.00	 3358.75	-1270.69	 2428.41
     34.5490	 3399.00	 3381.65	-1271.59	 2425.01
     34.5750	 3407.00	 3406.11	-1288.05	 2421.62
     34.6010	 3413.00	 3432.23	-1308.17	 2418.23
     34.6270	 3436.00	 3460.11	-1313.05	 2414.84
     34.6530	 3530.00	 3489.87	-1248.81	 2411.46
     34.6790	 3525.00	 3521.62	-1285.56	 2408.08
     34.7050	 3548.00	 3555.49	-1296.43	 2404.70
     34.7310	 3577.00	 3591.59	-1303.52	 2401.33
     34.7570	 3670.00	 3630.04	-1248.98	 2397.96
     34.7830	 3724.00	 3670.99	-1235.93	 2394.60
     34.8090	 3762.00	 3714.53	-1241.47	 2391.24
     34.8350	 3785.00	 3760.79	-1264.73	 2387.88
     34.8610	 3857.00	 3809.87	-1241.81	 2384.53
     34.8870	 3944.00	 3861.87	-1206.81	 2381.18
     34.9130	 4037.00	 3916.86	-1168.79	 2377.83
     34.9390	 4129.00	 3974.85	-1134.79	 2374.49
     34.9650	 4234.00	 4035.88	-1090.81	 2371.16
     34.9910	 4261.00	 4099.88	-1127.82	 2367.82
     35.0170	 4281.00	 4166.76	-1174.70	 2364.50
     35.0430	 4357.00	 4236.33	-1168.27	 2361.17
     35.0690	 4463.00	 4308.34	-1134.28	 2357.85
     35.0950	 4434.00	 4382.41	-1237.35	 2354.54
     35.1210	 4513.00	 4458.07	-1234.00	 2351.23
     35.1470	 4596.00	 4534.69	-1227.63	 2347.92
     35.1730	 4623.00	 4611.55	-1277.49	 2344.62
     35.1990	 4784.00	 4687.75	-1192.69	 2341.32
     35.2250	 4767.00	 4762.28	-1284.22	 2338.03
     35.2510	 4793.00	 4833.96	-1329.90	 2334.74
     35.2770	 4966.00	 4901.59	-1224.53	 2331.46
     35.3030	 4935.00	 4963.83	-1317.77	 2328.18
     35.3290	 4814.00	 5019.36	-1494.29	 2324.90
     35.3550	 4873.00	 5066.87	-1482.81	 2321.64
     35.3810	 5033.00	 5105.18	-1361.12	 2318.37
     35.4070	 5036.00	 5133.25	-1386.19	 2315.11
     35.4330	 5003.00	 5150.29	-1436.23	 2311.86
     35.4590	 5074.00	 5155.75	-1370.69	 2308.61
     35.4850	 5072.00	 5149.42	-1366.36	 2305.37
     35.5110	 5100.00	 5131.38	-1320.32	 2302.13
     35.5370	 5018.00	 5102.04	-1372.98	 2298.90
     35.5630	 5003.00	 5062.10	-1348.04	 2295.67
     35.5890	 4933.00	 5012.50	-1368.44	 2292.44
     35.6150	 4785.00	 4954.35	-1458.29	 2289.23
     35.6410	 4720.00	 4888.92	-1457.86	 2286.01
     35.6670	 4697.00	 4817.50	-1409.44	 2282.81
     35.6930	 4705.00	 4741.41	-1325.34	 2279.60
     35.7190	 4724.00	 4661.92	-1226.86	 2276.41
     35.7450	 4565.00	 4580.25	-1304.18	 2273.22
     35.7710	 4547.00	 4497.42	-1239.36	 2270.03
     35.7970	 4482.00	 4414.41	-1221.35	 2266.85
     35.8230	 4364.00	 4332.02	-1256.96	 2263.68
     35.8490	 4463.00	 4250.93	-1076.87	 2260.51
     35.8750	 4351.00	 4171.67	-1109.61	 2257.35
     35.9010	 4166.00	 4094.66	-1217.60	 2254.19
     35.9270	 4126.00	 4020.22	-1183.16	 2251.04
     35.9530	 4036.00	 3948.59	-1201.52	 2247.90
     35.9790	 3991.00	 3879.87	-1177.81	 2244.76
     36.0050	 3883.00	 3814.17	-1220.11	 2241.63
     36.0310	 3825.00	 3751.50	-1215.43	 2238.50
     36.0570	 3731.00	 3691.85	-1249.79	 2235.38
     36.0830	 3754.00	 3635.15	-1170.09	 2232.26
     36.1090	 3656.00	 3581.33	-1214.27	 2229.15
     36.1350	 3602.00	 3530.30	-1217.24	 2226.05
     36.1610	 3467.00	 3481.96	-1303.90	 2222.95
     36.1870	 3359.00	 3436.17	-1366.11	 2219.86
     36.2130	 3390.00	 3392.83	-1291.76	 2216.78
     36.2390	 3300.00	 3351.80	-1340.74	 2213.70
     36.2650	 3362.00	 3312.99	-1239.92	 2210.63
     36.2910	 3302.00	 3276.24	-1263.18	 2207.56
     36.3170	 3190.00	 3241.46	-1340.40	 2204.50
     36.3430	 3098.00	 3208.54	-1399.48	 2201.45
     36.3690	 3179.00	 3177.37	-1287.31	 2198.40
     36.3950	 3080.00	 3147.84	-1356.77	 2195.36
     36.4210	 3028.00	 3119.85	-1380.79	 2192.33
     36.4470	 2963.00	 3093.33	-1419.27	 2189.30
     36.4730	 2971.00	 3068.18	-1386.12	 2186.28
     36.4990	 2964.00	 3044.32	-1369.25	 2183.27
     36.5250	 3006.00	 3021.67	-1304.61	 2180.26
     36.5510	 2850.00	 3000.16	-1439.10	 2177.26
     36.5770	 2932.00	 2979.74	-1336.67	 2174.26
     36.6030	 2961.00	 2960.32	-1288.26	 2171.27
     36.6290	 2868.00	 2941.85	-1362.79	 2168.29
     36.6550	 2977.00	 2924.28	-1236.22	 2165.32
     36.6810	 2867.00	 2907.55	-1329.49	 2162.35
     36.7070	 2919.00	 2891.60	-1261.54	 2159.39
     36.7330	 2871.00	 2876.39	-1294.33	 2156.44
     36.7590	 2940.00	 2861.87	-1210.81	 2153.49
     36.7850	 2882.00	 2847.98	-1254.92	 2150.55
     36.8110	 2923.00	 2834.68	-1200.62	 2147.62
     36.8370	 2930.00	 2821.92	-1180.86	 2144.69
     36.8630	 2877.00	 2809.66	-1221.60	 2141.78
     36.8890	 2905.00	 2797.83	-1181.77	 2138.86
     36.9150	 3023.00	 2786.41	-1052.34	 2135.96
     36.9410	 2993.00	 2775.33	-1071.27	 2133.06
     36.9670	 2933.00	 2764.56	-1120.50	 2130.17
     36.9930	 2845.00	 2754.05	-1197.99	 2127.29
     37.0190	 2896.00	 2743.77	-1136.71	 2124.41
     37.0450	 2869.00	 2733.67	-1153.61	 2121.54
     37.0710	 2911.00	 2723.74	-1101.68	 2118.68
     37.0970	 2897.00	 2713.94	-1105.88	 2115.83
     37.1230	 2850.00	 2704.26	-1143.20	 2112.98
     37.1490	 2768.00	 2694.67	-1215.61	 2110.14
     37.1750	 2809.00	 2685.19	-1165.13	 2107.31
     37.2010	 2840.00	 2675.81	-1124.74	 2104.48
     37.2270	 2841.00	 2666.51	-1114.45	 2101.66
     37.2530	 2757.00	 2657.31	-1189.25	 2098.85
     37.2790	 2698.00	 2648.23	-1239.16	 2096.05
     37.3050	 2661.00	 2639.26	-1267.20	 2093.25
     37.3310	 2739.00	 2630.42	-1180.36	 2090.47
     37.3570	 2734.00	 2621.72	-1176.66	 2087.69
     37.3830	 2701.00	 2613.18	-1201.11	 2084.91
     37.4090	 2666.00	 2604.79	-1227.73	 2082.15
     37.4350	 2606.00	 2596.56	-1279.50	 2079.39
     37.4610	 2616.00	 2588.51	-1261.45	 2076.64
     37.4870	 2622.00	 2580.63	-1247.57	 2073.90
     37.5130	 2589.00	 2572.92	-1272.86	 2071.16
     37.5390	 2589.00	 2565.39	-1265.33	 2068.43
     37.5650	 2560.00	 2558.04	-1286.97	 2065.71
     37.5910	 2498.00	 2550.85	-1341.79	 2063.00
     37.6170	 2518.00	 2543.84	-1314.78	 2060.30
     37.6430	 2525.00	 2536.99	-1300.93	 2057.60
     37.6690	 2502.00	 2530.30	-1317.24	 2054.91
     37.6950	 2465.00	 2523.77	-1347.71	 2052.23
     37.7210	 2431.00	 2517.39	-1375.33	 2049.56
     37.7470	 2427.00	 2511.16	-1373.10	 2046.89
     37.7730	 2416.00	 2505.07	-1378.01	 2044.23
     37.7990	 2426.00	 2499.11	-1362.05	 2041.58
     37.8250	 2473.00	 2493.29	-1309.23	 2038.94
     37.8510	 2455.00	 2487.59	-1321.53	 2036.31
     37.8770	 2372.00	 2482.01	-1398.95	 2033.68
     37.9030	 2320.00	 2476.55	-1445.48	 2031.06
     37.9290	 2350.00	 2471.19	-1410.13	 2028.45
     37.9550	 2390.00	 2465.95	-1364.88	 2025.85
     37.9810	 2339.00	 2460.80	-1410.74	 2023.25
     38.0070	 2349.00	 2455.76	-1395.69	 2020.67
     38.0330	 2344.00	 2450.80	-1395.74	 2018.09
     38.0590	 2253.00	 2445.94	-1481.88	 2015.52
     38.0850	 2243.00	 2441.17	-1487.11	 2012.96
     38.1110	 2294.00	 2436.48	-1431.42	 2010.40
     38.1370	 2335.00	 2431.87	-1385.81	 2007.85
     38.1630	 2332.00	 2427.34	-1384.27	 2005.32
     38.1890	 2285.00	 2422.88	-1426.82	 2002.79
     38.2150	 2296.00	 2418.49	-1411.43	 2000.26
     38.2410	 2305.00	 2414.18	-1398.12	 1997.75
     38.2670	 2288.00	 2409.93	-1410.87	 1995.24
     38.2930	 2304.00	 2405.74	-1390.68	 1992.74
     38.3190	 2336.00	 2401.62	-1354.56	 1990.26
     38.3450	 2319.00	 2397.56	-1367.50	 1987.77
     38.3710	 2304.00	 2393.56	-1378.50	 1985.30
     38.3970	 2315.00	 2389.61	-1363.55	 1982.83
     38.4230	 2321.00	 2385.72	-1353.66	 1980.38
     38.4490	 2306.00	 2381.88	-1364.82	 1977.93
     38.4750	 2228.00	 2378.09	-1439.03	 1975.49
     38.5010	 2284.00	 2374.36	-1379.30	 1973.06
     38.5270	 2271.00	 2370.67	-1388.61	 1970.63
     38.5530	 2368.00	 2367.03	-1287.97	 1968.21
     38.5790	 2294.00	 2363.43	-1358.37	 1965.81
     38.6050	 2238.00	 2359.88	-1410.82	 1963.41
     38.6310	 2225.00	 2356.38	-1420.32	 1961.02
     38.6570	 2231.00	 2352.91	-1410.85	 1958.63
     38.6830	 2276.00	 2349.49	-1362.43	 1956.26
     38.7090	 2288.00	 2346.11	-1347.05	 1953.89
     38.7350	 2189.00	 2342.77	-1442.71	 1951.53
     38.7610	 2222.00	 2339.47	-1406.41	 1949.18
     38.7870	 2333.00	 2336.20	-1292.14	 1946.84
     38.8130	 2270.00	 2332.97	-1351.91	 1944.51
     38.8390	 2323.00	 2329.78	-1295.72	 1942.18
     38.8650	 2220.00	 2326.63	-1395.56	 1939.87
     38.8910	 2290.00	 2323.50	-1322.44	 1937.56
     38.9170	 2253.00	 2320.42	-1356.36	 1935.26
     38.9430	 2236.00	 2317.36	-1370.30	 1932.97
     38.9690	 2145.00	 2314.34	-1458.28	 1930.69
     38.9950	 2281.00	 2311.35	-1319.29	 1928.41
     39.0210	 2265.00	 2308.40	-1332.33	 1926.14
     39.0470	 2255.00	 2305.47	-1339.41	 1923.89
     39.0730	 2247.00	 2302.58	-1344.51	 1921.64
     39.0990	 2271.00	 2299.71	-1317.65	 1919.40
     39.1250	 2299.00	 2296.88	-1286.82	 1917.16
     39.1510	 2308.00	 2294.07	-1275.01	 1914.94
     39.1770	 2230.00	 2291.30	-1350.23	 1912.72
     39.2030	 2193.00	 2288.55	-1384.49	 1910.52
     39.2290	 2206.00	 2285.83	-1368.77	 1908.32
     39.2550	 2191.00	 2283.14	-1381.08	 1906.13
     39.2810	 2324.00	 2280.48	-1245.41	 1903.94
     39.3070	 2201.00	 2277.84	-1365.78	 1901.77
     39.3330	 2198.00	 2275.23	-1366.17	 1899.60
     39.3590	 2260.00	 2272.65	-1301.59	 1897.45
     39.3850	 2261.00	 2270.09	-1298.03	 1895.30
     39.4110	 2265.00	 2267.57	-1291.50	 1893.16
     39.4370	 2248.00	 2265.06	-1306.00	 1891.03
     39.4630	 2254.00	 2262.59	-1297.53	 1888.90
     39.4890	 2268.00	 2260.14	-1281.08	 1886.79
     39.5150	 2253.00	 2257.72	-1293.65	 1884.68
     39.5410	 2204.00	 2255.31	-1340.25	 1882.58
     39.5670	 2222.00	 2252.94	-1319.88	 1880.49
     39.5930	 2209.00	 2250.59	-1330.53	 1878.41
     39.6190	 2189.00	 2248.27	-1348.21	 1876.34
     39.6450	 2180.00	 2245.97	-1354.91	 1874.27
     39.6710	 2156.00	 2243.69	-1376.63	 1872.22
     39.6970	 2148.00	 2241.45	-1382.38	 1870.17
     39.7230	 2197.00	 2239.22	-1331.16	 1868.13
     39.7490	 2207.00	 2237.02	-1318.96	 1866.10
     39.7750	 2190.00	 2234.85	-1333.78	 1864.08
     39.8010	 2162.00	 2232.70	-1359.63	 1862.06
     39.8270	 2218.00	 2230.57	-1301.51	 1860.06
     39.8530	 2226.00	 2228.47	-1291.41	 1858.06
     39.8790	 2160.00	 2226.39	-1355.33	 1856.07
     39.9050	 2158.00	 2224.34	-1355.28	 1854.09
     39.9310	 2214.00	 2222.32	-1297.26	 1852.12
     39.9570	 2219.00	 2220.32	-1290.26	 1850.15
     39.9830	 2246.00	 2218.34	-1261.28	 1848.20
     40.0090	 2190.00	 2216.39	-1315.33	 1846.25
     40.0350	 2179.00	 2214.47	-1324.41	 1844.31
     40.0610	 2208.00	 2212.57	-1293.51	 1842.38
     40.0870	 2193.00	 2210.70	-1306.64	 1840.46
     40.1130	 2153.00	 2208.85	-1344.79	 1838.55
     40.1390	 2232.00	 2207.03	-1263.97	 1836.64
     40.1650	 2257.00	 2205.24	-1237.18	 1834.75
     40.1910	 2246.00	 2203.47	-1246.41	 1832.86
     40.2170	 2219.00	 2201.73	-1271.67	 1830.98
     40.2430	 2137.00	 2200.02	-1351.96	 1829.11
     40.2690	 2192.00	 2198.35	-1295.28	 1827.24
     40.2950	 2186.00	 2196.69	-1299.63	 1825.39
     40.3210	 2165.00	 2195.07	-1319.01	 1823.54
     40.3470	 2214.00	 2193.47	-1268.41	 1821.70
     40.3730	 2236.00	 2191.90	-1244.84	 1819.87
     40.3990	 2234.00	 2190.36	-1245.30	 1818.05
     40.4250	 2203.00	 2188.85	-1274.79	 1816.24
     40.4510	 2192.00	 2187.37	-1284.31	 1814.43
     40.4770	 2228.00	 2185.92	-1246.86	 1812.63
     40.5030	 2217.00	 2184.50	-1256.44	 1810.85
     40.5290	 2172.00	 2183.12	-1300.06	 1809.06
     40.5550	 2209.00	 2181.77	-1261.70	 1807.29
     40.5810	 2204.00	 2180.45	-1265.39	 1805.53
     40.6070	 2194.00	 2179.17	-1274.10	 1803.77
     40.6330	 2230.00	 2177.92	-1236.86	 1802.02
     40.6590	 2236.00	 2176.71	-1229.64	 1800.28
     40.6850	 2184.00	 2175.53	-1280.47	 1798.55
     40.7110	 2188.00	 2174.39	-1275.33	 1796.83
     40.7370	 2204.00	 2173.29	-1258.23	 1795.12
     40.7630	 2222.00	 2172.23	-1239.17	 1793.41
     40.7890	 2203.00	 2171.21	-1257.15	 1791.71
     40.8150	 2197.00	 2170.24	-1262.17	 1790.02
     40.8410	 2232.00	 2169.30	-1226.24	 1788.34
     40.8670	 2256.00	 2168.41	-1201.35	 1786.66
     40.8930	 2229.00	 2167.57	-1227.50	 1785.00
     40.9190	 2178.00	 2166.77	-1277.71	 1783.34
     40.9450	 2215.00	 2166.02	-1239.96	 1781.69
     40.9710	 2251.00	 2165.32	-1203.26	 1780.05
     40.9970	 2289.00	 2164.67	-1164.61	 1778.41
     41.0230	 2310.00	 2164.07	-1143.01	 1776.79
     41.0490	 2266.00	 2163.53	-1186.47	 1775.17
     41.0750	 2190.00	 2163.05	-1261.99	 1773.56
     41.1010	 2304.00	 2162.63	-1147.57	 1771.96
     41.1270	 2178.00	 2162.27	-1273.20	 1770.36
     41.1530	 2204.00	 2161.97	-1246.90	 1768.78
     41.1790	 2221.00	 2161.73	-1229.67	 1767.20
     41.2050	 2202.00	 2161.57	-1248.51	 1765.63
     41.2310	 2256.00	 2161.48	-1194.41	 1764.07
     41.2570	 2220.00	 2161.46	-1230.40	 1762.51
     41.2830	 2151.00	 2161.52	-1299.45	 1760.97
     41.3090	 2184.00	 2161.66	-1266.59	 1759.43
     41.3350	 2232.00	 2161.88	-1218.82	 1757.90
     41.3610	 2228.00	 2162.19	-1223.13	 1756.38
     41.3870	 2254.00	 2162.60	-1197.53	 1754.86
     41.4130	 2196.00	 2163.10	-1256.03	 1753.35
     41.4390	 2151.00	 2163.70	-1301.64	 1751.86
     41.4650	 2228.00	 2164.40	-1225.34	 1750.36
     41.4910	 2296.00	 2165.22	-1158.16	 1748.88
     41.5170	 2270.00	 2166.16	-1185.09	 1747.40
     41.5430	 2257.00	 2167.21	-1199.15	 1745.94
     41.5690	 2212.00	 2168.40	-1245.34	 1744.48
     41.5950	 2192.00	 2169.72	-1266.66	 1743.02
     41.6210	 2268.00	 2171.18	-1192.12	 1741.58
     41.6470	 2226.00	 2172.79	-1235.73	 1740.14
     41.6730	 2299.00	 2174.56	-1164.50	 1738.71
     41.6990	 2151.00	 2176.50	-1314.43	 1737.29
     41.7250	 2306.00	 2178.61	-1161.55	 1735.88
     41.7510	 2209.00	 2180.91	-1260.85	 1734.47
     41.7770	 2252.00	 2183.40	-1220.34	 1733.07
     41.8030	 2217.00	 2186.11	-1258.05	 1731.68
     41.8290	 2157.00	 2189.03	-1320.97	 1730.29
     41.8550	 2277.00	 2192.19	-1204.13	 1728.92
     41.8810	 2195.00	 2195.60	-1289.53	 1727.55
     41.9070	 2238.00	 2199.26	-1250.20	 1726.19
     41.9330	 2213.00	 2203.21	-1279.15	 1724.83
     41.9590	 2137.00	 2207.46	-1359.39	 1723.49
     41.9850	 2169.00	 2212.01	-1331.95	 1722.15
     42.0110	 2257.00	 2216.91	-1248.85	 1720.82
     42.0370	 2204.00	 2222.16	-1307.09	 1719.49
     42.0630	 2203.00	 2227.78	-1313.72	 1718.18
     42.0890	 2231.00	 2233.81	-1291.75	 1716.87
     42.1150	 2258.00	 2240.27	-1271.21	 1715.57
     42.1410	 2183.00	 2247.18	-1353.12	 1714.27
     42.1670	 2166.00	 2254.57	-1377.51	 1712.98
     42.1930	 2177.00	 2262.48	-1374.42	 1711.70
     42.2190	 2181.00	 2270.94	-1378.88	 1710.43
     42.2450	 2207.00	 2279.97	-1361.91	 1709.17
     42.2710	 2264.00	 2289.62	-1314.56	 1707.91
     42.2970	 2183.00	 2299.93	-1405.87	 1706.66
     42.3230	 2256.00	 2310.92	-1343.86	 1705.41
     42.3490	 2249.00	 2322.65	-1362.59	 1704.18
     42.3750	 2248.00	 2335.14	-1376.08	 1702.95
     42.4010	 2280.00	 2348.44	-1357.38	 1701.72
     42.4270	 2352.00	 2362.59	-1299.53	 1700.51
     42.4530	 2355.00	 2377.63	-1311.56	 1699.30
     42.4790	 2345.00	 2393.58	-1337.52	 1698.10
     42.5050	 2379.00	 2410.48	-1320.42	 1696.91
     42.5310	 2437.00	 2428.36	-1280.30	 1695.72
     42.5570	 2428.00	 2447.22	-1308.16	 1694.54
     42.5830	 2439.00	 2467.08	-1317.02	 1693.37
     42.6090	 2503.00	 2487.93	-1273.87	 1692.20
     42.6350	 2529.00	 2509.74	-1269.68	 1691.04
     42.6610	 2590.00	 2532.46	-1231.39	 1689.89
     42.6870	 2620.00	 2556.02	-1224.96	 1688.74
     42.7130	 2635.00	 2580.32	-1234.26	 1687.60
     42.7390	 2668.00	 2605.23	-1226.17	 1686.47
     42.7650	 2757.00	 2630.57	-1162.51	 1685.35
     42.7910	 2744.00	 2656.14	-1201.07	 1684.23
     42.8170	 2760.00	 2681.66	-1210.60	 1683.12
     42.8430	 2782.00	 2706.85	-1213.79	 1682.01
     42.8690	 2750.00	 2731.36	-1270.30	 1680.92
     42.8950	 2800.00	 2754.83	-1243.77	 1679.83
     42.9210	 2845.00	 2776.84	-1220.78	 1678.74
     42.9470	 2825.00	 2796.98	-1260.92	 1677.66
     42.9730	 2860.00	 2814.83	-1243.77	 1676.59
     42.9990	 2947.00	 2830.00	-1171.93	 1675.53
     43.0250	 2898.00	 2842.11	-1233.05	 1674.47
     43.0510	 2852.00	 2850.87	-1287.81	 1673.42
     43.0770	 2924.00	 2856.03	-1220.96	 1672.37
     43.1030	 2912.00	 2857.43	-1234.37	 1671.34
     43.1290	 2863.00	 2855.03	-1280.97	 1670.30
     43.1550	 2832.00	 2848.86	-1305.79	 1669.28
     43.1810	 2802.00	 2839.04	-1325.98	 1668.26
     43.2070	 2811.00	 2825.80	-1303.74	 1667.25
     43.2330	 2836.00	 2809.42	-1262.36	 1666.24
     43.2590	 2791.00	 2790.26	-1288.20	 1665.24
     43.2850	 2747.00	 2768.70	-1310.64	 1664.25
     43.3110	 2707.00	 2745.14	-1327.08	 1663.26
     43.3370	 2628.00	 2720.00	-1380.94	 1662.28
     43.3630	 2704.00	 2693.68	-1278.62	 1661.31
     43.3890	 2694.00	 2666.56	-1261.50	 1660.34
     43.4150	 2658.00	 2638.99	-1269.92	 1659.38
     43.4410	 2555.00	 2611.27	-1345.20	 1658.42
     43.4670	 2514.00	 2583.67	-1358.61	 1657.47
     43.4930	 2506.00	 2556.42	-1339.36	 1656.53
     43.5190	 2510.00	 2529.71	-1308.65	 1655.59
     43.5450	 2477.00	 2503.68	-1315.62	 1654.66
     43.5710	 2445.00	 2478.45	-1322.39	 1653.73
     43.5970	 2427.00	 2454.10	-1316.03	 1652.82
     43.6230	 2410.00	 2430.68	-1309.62	 1651.90
     43.6490	 2368.00	 2408.23	-1329.17	 1650.99
     43.6750	 2271.00	 2386.77	-1404.71	 1650.09
     43.7010	 2232.00	 2366.29	-1423.23	 1649.20
     43.7270	 2261.00	 2346.78	-1374.72	 1648.31
     43.7530	 2209.00	 2328.23	-1408.17	 1647.43
     43.7790	 2261.00	 2310.61	-1338.55	 1646.55
     43.8050	 2266.00	 2293.88	-1316.81	 1645.68
     43.8310	 2285.00	 2278.00	-1281.94	 1644.81
     43.8570	 2200.00	 2262.95	-1351.88	 1643.95
     43.8830	 2132.00	 2248.67	-1405.61	 1643.10
     43.9090	 2180.00	 2235.14	-1344.08	 1642.25
     43.9350	 2123.00	 2222.31	-1388.25	 1641.40
     43.9610	 2183.00	 2210.15	-1316.09	 1640.57
     43.9870	 2115.00	 2198.61	-1372.55	 1639.74
     44.0130	 2079.00	 2187.66	-1397.60	 1638.91
     44.0390	 2109.00	 2177.27	-1357.21	 1638.09
     44.0650	 2066.00	 2167.41	-1390.34	 1637.28
     44.0910	 2068.00	 2158.03	-1378.97	 1636.47
     44.1170	 2068.00	 2149.12	-1370.06	 1635.66
     44.1430	 2046.00	 2140.65	-1383.58	 1634.86
     44.1690	 2000.00	 2132.58	-1421.52	 1634.07
     44.1950	 2077.00	 2124.90	-1336.83	 1633.28
     44.2210	 2036.00	 2117.57	-1370.51	 1632.50
     44.2470	 2069.00	 2110.59	-1330.53	 1631.72
     44.2730	 1996.00	 2103.93	-1396.87	 1630.95
     44.2990	 2077.00	 2097.57	-1309.50	 1630.19
     44.3250	 2022.00	 2091.49	-1358.42	 1629.43
     44.3510	 2052.00	 2085.67	-1322.61	 1628.67
     44.3770	 2059.00	 2080.10	-1310.04	 1627.92
     44.4030	 2037.00	 2074.78	-1326.71	 1627.18
     44.4290	 2091.00	 2069.67	-1267.61	 1626.44
     44.4550	 2061.00	 2064.77	-1292.71	 1625.70
     44.4810	 1996.00	 2060.07	-1353.01	 1624.97
     44.5070	 2024.00	 2055.55	-1320.49	 1624.25
     44.5330	 2031.00	 2051.22	-1309.15	 1623.53
     44.5590	 2047.00	 2047.04	-1288.98	 1622.82
     44.5850	 2004.00	 2043.03	-1327.97	 1622.11
     44.6110	 2035.00	 2039.16	-1293.10	 1621.40
     44.6370	 2001.00	 2035.44	-1323.38	 1620.70
     44.6630	 2051.00	 2031.85	-1269.78	 1620.01
     44.6890	 2005.00	 2028.38	-1312.32	 1619.32
     44.7150	 2027.00	 2025.04	-1286.97	 1618.64
     44.7410	 2153.00	 2021.80	-1157.74	 1617.96
     44.7670	 2130.00	 2018.68	-1177.62	 1617.28
     44.7930	 1965.00	 2015.66	-1339.60	 1616.61
     44.8190	 2077.00	 2012.74	-1224.68	 1615.95
     44.8450	 2017.00	 2009.91	-1281.85	 1615.29
     44.8710	 2066.00	 2007.17	-1230.11	 1614.63
     44.8970	 2017.00	 2004.52	-1276.45	 1613.98
     44.9230	 2026.00	 2001.94	-1264.88	 1613.33
     44.9490	 2065.00	 1999.44	-1223.38	 1612.69
     44.9750	 2084.00	 1997.02	-1201.96	 1612.06
     45.0010	 1992.00	 1994.66	-1291.60	 1611.42
     45.0270	 2000.00	 1992.38	-1281.32	 1610.80
     45.0530	 2007.00	 1990.15	-1272.09	 1610.17
     45.0790	 2016.00	 1987.99	-1260.93	 1609.55
     45.1050	 1999.00	 1985.89	-1275.83	 1608.94
     45.1310	 1992.00	 1983.84	-1280.78	 1608.33
     45.1570	 2039.00	 1981.85	-1231.79	 1607.72
     45.1830	 2016.00	 1979.91	-1252.85	 1607.12
     45.2090	 1999.00	 1978.02	-1267.96	 1606.53
     45.2350	 1986.00	 1976.18	-1279.11	 1605.93
     45.2610	 1999.00	 1974.38	-1264.32	 1605.34
     45.2870	 2023.00	 1972.63	-1238.56	 1604.76
     45.3130	 2025.00	 1970.91	-1234.85	 1604.18
     45.3390	 2030.00	 1969.24	-1228.18	 1603.61
     45.3650	 2016.00	 1967.61	-1240.55	 1603.03
     45.3910	 1964.00	 1966.02	-1290.96	 1602.47
     45.4170	 1987.00	 1964.47	-1266.40	 1601.91
     45.4430	 2054.00	 1962.95	-1197.88	 1601.35
     45.4690	 2032.00	 1961.46	-1218.40	 1600.79
     45.4950	 2012.00	 1960.00	-1236.94	 1600.24
     45.5210	 1984.00	 1958.58	-1263.52	 1599.69
     45.5470	 2001.00	 1957.19	-1245.13	 1599.15
     45.5730	 2026.00	 1955.83	-1218.77	 1598.61
     45.5990	 2002.00	 1954.50	-1241.44	 1598.08
     45.6250	 1971.00	 1953.19	-1271.13	 1597.55
     45.6510	 1961.00	 1951.92	-1279.85	 1597.02
     45.6770	 2006.00	 1950.66	-1233.60	 1596.50
     45.7030	 2007.00	 1949.44	-1231.38	 1595.98
     45.7290	 1973.00	 1948.24	-1264.17	 1595.46
     45.7550	 1976.00	 1947.06	-1260.00	 1594.95
     45.7810	 1975.00	 1945.91	-1259.84	 1594.44
     45.8070	 1991.00	 1944.77	-1242.71	 1593.94
     45.8330	 2001.00	 1943.66	-1231.60	 1593.44
     45.8590	 1980.00	 1942.58	-1251.52	 1592.94
     45.8850	 2000.00	 1941.51	-1230.45	 1592.45
     45.9110	 1995.00	 1940.46	-1234.40	 1591.96
     45.9370	 2004.00	 1939.44	-1224.38	 1591.47
     45.9630	 1992.00	 1938.43	-1235.37	 1590.99
     45.9890	 1944.00	 1937.44	-1282.38	 1590.51
     46.0150	 2014.00	 1936.48	-1211.41	 1590.04
     46.0410	 2029.00	 1935.53	-1195.46	 1589.57
     46.0670	 1999.00	 1934.59	-1224.53	 1589.10
     46.0930	 1980.00	 1933.68	-1242.62	 1588.63
     46.1190	 1981.00	 1932.78	-1240.72	 1588.17
     46.1450	 1964.00	 1931.90	-1256.84	 1587.71
     46.1710	 1978.00	 1931.04	-1241.98	 1587.26
     46.1970	 1980.00	 1930.19	-1239.13	 1586.81
     46.2230	 1933.00	 1929.36	-1285.30	 1586.36
     46.2490	 1966.00	 1928.55	-1251.49	 1585.91
     46.2750	 1955.00	 1927.75	-1261.69	 1585.47
     46.3010	 1861.00	 1926.97	-1354.91	 1585.03
     46.3270	 1883.00	 1926.20	-1332.14	 1584.60
     46.3530	 1880.00	 1925.45	-1334.39	 1584.17
     46.3790	 1971.00	 1924.72	-1242.66	 1583.74
     46.4050	 1988.00	 1924.00	-1224.94	 1583.31
     46.4310	 1970.00	 1923.30	-1242.23	 1582.89
     46.4570	 1955.00	 1922.61	-1256.55	 1582.47
     46.4830	 1970.00	 1921.93	-1240.87	 1582.05
     46.5090	 1873.00	 1921.28	-1337.22	 1581.64
     46.5350	 1940.00	 1920.64	-1269.57	 1581.23
     46.5610	 2017.00	 1920.01	-1191.95	 1580.82
     46.5870	 1995.00	 1919.40	-1213.34	 1580.42
     46.6130	 1883.00	 1918.80	-1324.74	 1580.01
     46.6390	 1939.00	 1918.22	-1268.16	 1579.61
     46.6650	 2007.00	 1917.66	-1199.59	 1579.22
     46.6910	 1964.00	 1917.10	-1242.04	 1578.82
     46.7170	 1883.00	 1916.57	-1322.51	 1578.43
     46.7430	 1906.00	 1916.05	-1298.98	 1578.05
     46.7690	 1879.00	 1915.54	-1325.47	 1577.66
     46.7950	 1959.00	 1915.04	-1244.98	 1577.28
     46.8210	 1947.00	 1914.55	-1256.49	 1576.90
     46.8470	 1981.00	 1914.08	-1222.02	 1576.52
     46.8730	 1954.00	 1913.61	-1248.55	 1576.15
     46.8990	 1913.00	 1913.16	-1289.09	 1575.78
     46.9250	 1944.00	 1912.70	-1257.64	 1575.41
     46.9510	 1923.00	 1912.26	-1278.20	 1575.04
     46.9770	 1982.00	 1911.81	-1218.75	 1574.67
     47.0030	 1966.00	 1911.37	-1234.30	 1574.31
     47.0290	 1896.00	 1910.92	-1303.86	 1573.95
     47.0550	 1929.00	 1910.46	-1270.40	 1573.60
     47.0810	 1941.00	 1910.00	-1257.94	 1573.24
     47.1070	 1953.00	 1909.53	-1245.47	 1572.89
     47.1330	 1954.00	 1909.05	-1243.98	 1572.54
     47.1590	 1956.00	 1908.55	-1241.49	 1572.19
     47.1850	 1912.00	 1908.04	-1284.97	 1571.85
     47.2110	 1986.00	 1907.51	-1210.45	 1571.51
     47.2370	 1955.00	 1906.97	-1240.90	 1571.17
     47.2630	 1905.00	 1906.41	-1290.35	 1570.83
     47.2890	 1931.00	 1905.84	-1263.77	 1570.49
     47.3150	 1927.00	 1905.25	-1267.19	 1570.16
     47.3410	 1873.00	 1904.66	-1320.59	 1569.83
     47.3670	 1899.00	 1904.05	-1293.99	 1569.50
     47.3930	 1866.00	 1903.44	-1326.38	 1569.17
     47.4190	 1879.00	 1902.82	-1312.76	 1568.85
     47.4450	 1889.00	 1902.20	-1302.14	 1568.52
     47.4710	 1893.00	 1901.58	-1297.52	 1568.20
     47.4970	 1912.00	 1900.96	-1277.90	 1567.88
     47.5230	 1870.00	 1900.35	-1319.29	 1567.57
     47.5490	 1874.00	 1899.74	-1314.67	 1567.25
     47.5750	 1947.00	 1899.13	-1241.07	 1566.94
     47.6010	 1962.00	 1898.53	-1225.47	 1566.63
     47.6270	 1949.00	 1897.94	-1237.88	 1566.32
     47.6530	 1962.00	 1897.36	-1224.30	 1566.01
     47.6790	 1891.00	 1896.79	-1294.73	 1565.71
     47.7050	 1886.00	 1896.22	-1299.16	 1565.41
     47.7310	 1879.00	 1895.67	-1305.61	 1565.10
     47.7570	 1934.00	 1895.13	-1250.07	 1564.80
     47.7830	 1940.00	 1894.59	-1243.53	 1564.51
     47.8090	 1918.00	 1894.07	-1265.01	 1564.21
     47.8350	 1956.00	 1893.56	-1226.50	 1563.92
     47.8610	 1962.00	 1893.05	-1219.99	 1563.62
     47.8870	 1905.00	 1892.56	-1276.50	 1563.33
     47.9130	 1874.00	 1892.07	-1307.01	 1563.04
     47.9390	 1865.00	 1891.59	-1315.53	 1562.76
     47.9650	 1890.00	 1891.12	-1290.06	 1562.47
     47.9910	 1910.00	 1890.66	-1269.60	 1562.18
     48.0170	 1912.00	 1890.21	-1267.15	 1561.90
     48.0430	 1931.00	 1889.77	-1247.70	 1561.62
     48.0690	 1934.00	 1889.33	-1244.27	 1561.34
     48.0950	 1868.00	 1888.90	-1309.84	 1561.06
     48.1210	 1839.00	 1888.47	-1338.41	 1560.79
     48.1470	 1900.00	 1888.06	-1277.00	 1560.51
     48.1730	 1953.00	 1887.65	-1223.59	 1560.24
     48.1990	 1970.00	 1887.24	-1206.18	 1559.97
     48.2250	 1954.00	 1886.85	-1221.78	 1559.70
     48.2510	 1933.00	 1886.45	-1242.39	 1559.43
     48.2770	 1948.00	 1886.07	-1227.00	 1559.16
     48.3030	 1934.00	 1885.68	-1240.62	 1558.89
     48.3290	 1885.00	 1885.31	-1289.25	 1558.63
     48.3550	 1851.00	 1884.94	-1322.88	 1558.36
     48.3810	 1849.00	 1884.57	-1324.51	 1558.10
     48.4070	 1877.00	 1884.21	-1296.15	 1557.84
     48.4330	 1895.00	 1883.85	-1277.79	 1557.58
     48.4590	 1886.00	 1883.50	-1286.44	 1557.32
     48.4850	 1844.00	 1883.15	-1328.09	 1557.06
     48.5110	 1841.00	 1882.81	-1330.75	 1556.80
     48.5370	 1847.00	 1882.47	-1324.41	 1556.55
     48.5630	 1874.00	 1882.14	-1297.07	 1556.29
     48.5890	 1930.00	 1881.80	-1240.74	 1556.04
     48.6150	 1879.00	 1881.48	-1291.41	 1555.79
     48.6410	 1841.00	 1881.15	-1329.09	 1555.54
     48.6670	 1880.00	 1880.83	-1289.77	 1555.29
     48.6930	 1843.00	 1880.52	-1326.45	 1555.04
     48.7190	 1847.00	 1880.20	-1322.14	 1554.79
     48.7450	 1844.00	 1879.89	-1324.83	 1554.54
     48.7710	 1845.00	 1879.59	-1323.53	 1554.30
     48.7970	 1877.00	 1879.29	-1291.22	 1554.05
     48.8230	 1879.00	 1878.99	-1288.92	 1553.81
     48.8490	 1922.00	 1878.69	-1245.63	 1553.57
     48.8750	 1861.00	 1878.40	-1306.34	 1553.32
     48.9010	 1868.00	 1878.11	-1299.05	 1553.08
     48.9270	 1908.00	 1877.82	-1258.76	 1552.84
     48.9530	 1897.00	 1877.54	-1269.47	 1552.60
     48.9790	 1975.00	 1877.25	-1191.19	 1552.36
     49.0050	 1852.00	 1876.98	-1313.91	 1552.13
     49.0310	 1886.00	 1876.70	-1279.64	 1551.89
     49.0570	 1884.00	 1876.43	-1281.37	 1551.65
     49.0830	 1798.00	 1876.16	-1367.10	 1551.42
     49.1090	 1898.00	 1875.89	-1266.83	 1551.18
     49.1350	 1883.00	 1875.63	-1281.57	 1550.95
     49.1610	 1899.00	 1875.37	-1265.30	 1550.72
     49.1870	 1847.00	 1875.11	-1317.04	 1550.48
     49.2130	 1846.00	 1874.85	-1317.79	 1550.25
     49.2390	 1807.00	 1874.60	-1356.53	 1550.02
     49.2650	 1841.00	 1874.34	-1322.28	 1549.79
     49.2910	 1820.00	 1874.10	-1343.03	 1549.56
     49.3170	 1908.00	 1873.85	-1254.79	 1549.33
     49.3430	 1853.00	 1873.60	-1309.54	 1549.10
     49.3690	 1907.00	 1873.36	-1255.30	 1548.87
     49.3950	 1762.00	 1873.12	-1400.06	 1548.65
     49.4210	 1790.00	 1872.89	-1371.83	 1548.42
     49.4470	 1846.00	 1872.65	-1315.59	 1548.19
     49.4730	 1864.00	 1872.42	-1297.36	 1547.97
     49.4990	 1823.00	 1872.19	-1338.13	 1547.74
     49.5250	 1778.00	 1871.96	-1382.90	 1547.52
     49.5510	 1802.00	 1871.74	-1358.68	 1547.29
     49.5770	 1854.00	 1871.52	-1306.46	 1547.07
     49.6030	 1956.00	 1871.30	-1204.24	 1546.85
     49.6290	 1851.00	 1871.08	-1309.02	 1546.62
     49.6550	 1855.00	 1870.86	-1304.80	 1546.40
     49.6810	 1905.00	 1870.65	-1254.59	 1546.18
     49.7070	 1861.00	 1870.44	-1298.38	 1545.96
     49.7330	 1863.00	 1870.23	-1296.17	 1545.73
     49.7590	 1821.00	 1870.02	-1337.96	 1545.51
     49.7850	 1908.00	 1869.82	-1250.76	 1545.29
     49.8110	 1834.00	 1869.62	-1324.56	 1545.07
     49.8370	 1871.00	 1869.42	-1287.36	 1544.85
     49.8630	 1818.00	 1869.22	-1340.16	 1544.63
     49.8890	 1886.00	 1869.03	-1271.97	 1544.41
     49.9150	 1843.00	 1868.84	-1314.77	 1544.19
     49.9410	 1917.00	 1868.65	-1240.58	 1543.97
     49.9670	 1939.00	 1868.46	-1218.40	 1543.76
     49.9930	 1909.00	 1868.27	-1248.21	 1543.54
     50.0190	 1880.00	 1868.09	-1277.03	 1543.32
     50.0450	 1928.00	 1867.91	-1228.85	 1543.10
     50.0710	 1863.00	 1867.73	-1293.67	 1542.88
     50.0970	 1831.00	 1867.56	-1325.49	 1542.66
     50.1230	 1892.00	 1867.38	-1264.32	 1542.45
     50.1490	 1911.00	 1867.21	-1245.15	 1542.23
     50.1750	 1917.00	 1867.04	-1238.98	 1542.01
     50.2010	 1864.00	 1866.88	-1291.82	 1541.80
     50.2270	 1844.00	 1866.71	-1311.65	 1541.58
     50.2530	 1814.00	 1866.55	-1341.49	 1541.36
     50.2790	 1851.00	 1866.40	-1304.34	 1541.14
     50.3050	 1879.00	 1866.24	-1276.18	 1540.93
     50.3310	 1843.00	 1866.09	-1312.03	 1540.71
     50.3570	 1882.00	 1865.94	-1272.88	 1540.49
     50.3830	 1943.00	 1865.79	-1211.73	 1540.28
     50.4090	 1921.00	 1865.65	-1233.59	 1540.06
     50.4350	 1854.00	 1865.51	-1300.45	 1539.84
     50.4610	 1876.00	 1865.37	-1278.31	 1539.63
     50.4870	 1860.00	 1865.23	-1294.17	 1539.41
     50.5130	 1861.00	 1865.10	-1293.04	 1539.20
     50.5390	 1891.00	 1864.97	-1262.91	 1538.98
     50.5650	 1909.00	 1864.85	-1244.79	 1538.76
     50.5910	 1866.00	 1864.73	-1287.66	 1538.55
     50.6170	 1840.00	 1864.61	-1313.54	 1538.33
     50.6430	 1875.00	 1864.49	-1278.43	 1538.11
     50.6690	 1866.00	 1864.38	-1287.32	 1537.90
     50.6950	 1849.00	 1864.27	-1304.21	 1537.68
     50.7210	 1824.00	 1864.16	-1329.10	 1537.46
     50.7470	 1807.00	 1864.06	-1346.00	 1537.24
     50.7730	 1889.00	 1863.97	-1263.90	 1537.03
     50.7990	 1929.00	 1863.87	-1223.81	 1536.81
     50.8250	 1876.00	 1863.78	-1276.72	 1536.59
     50.8510	 1874.00	 1863.70	-1278.64	 1536.37
     50.8770	 1900.00	 1863.62	-1252.56	 1536.16
     50.9030	 1935.00	 1863.54	-1217.48	 1535.94
     50.9290	 1930.00	 1863.47	-1222.41	 1535.72
     50.9550	 1895.00	 1863.40	-1257.34	 1535.50
     50.9810	 1903.00	 1863.34	-1249.28	 1535.28
     51.0070	 1873.00	 1863.28	-1279.22	 1535.07
     51.0330	 1874.00	 1863.23	-1278.17	 1534.85
     51.0590	 1907.00	 1863.19	-1245.12	 1534.63
     51.0850	 1891.00	 1863.15	-1261.08	 1534.41
     51.1110	 1863.00	 1863.11	-1289.05	 1534.19
     51.1370	 1790.00	 1863.08	-1362.02	 1533.97
     51.1630	 1766.00	 1863.06	-1386.00	 1533.75
     51.1890	 1886.00	 1863.04	-1265.98	 1533.53
     51.2150	 1886.00	 1863.03	-1265.97	 1533.31
     51.2410	 1865.00	 1863.03	-1286.97	 1533.09
     51.2670	 1849.00	 1863.03	-1302.97	 1532.87
     51.2930	 1808.00	 1863.04	-1343.98	 1532.64
     51.3190	 1802.00	 1863.06	-1350.00	 1532.42
     51.3450	 1826.00	 1863.09	-1326.03	 1532.20
     51.3710	 1866.00	 1863.13	-1286.06	 1531.98
     51.3970	 1843.00	 1863.17	-1309.11	 1531.76
     51.4230	 1895.00	 1863.22	-1257.16	 1531.53
     51.4490	 1880.00	 1863.29	-1272.22	 1531.31
     51.4750	 1864.00	 1863.36	-1288.30	 1531.09
     51.5010	 1873.00	 1863.44	-1279.38	 1530.86
     51.5270	 1862.00	 1863.54	-1290.47	 1530.64
     51.5530	 1824.00	 1863.64	-1328.58	 1530.41
     51.5790	 1856.00	 1863.76	-1296.69	 1530.19
     51.6050	 1869.00	 1863.89	-1283.82	 1529.96
     51.6310	 1830.00	 1864.03	-1322.97	 1529.74
     51.6570	 1818.00	 1864.18	-1335.12	 1529.51
     51.6830	 1856.00	 1864.35	-1297.29	 1529.29
     51.7090	 1872.00	 1864.53	-1281.47	 1529.06
     51.7350	 1879.00	 1864.73	-1274.67	 1528.83
     51.7610	 1829.00	 1864.95	-1324.89	 1528.60
     51.7870	 1844.00	 1865.18	-1310.12	 1528.38
     51.8130	 1804.00	 1865.43	-1350.37	 1528.15
     51.8390	 1794.00	 1865.70	-1360.64	 1527.92
     51.8650	 1828.00	 1865.99	-1326.93	 1527.69
     51.8910	 1852.00	 1866.30	-1303.24	 1527.46
     51.9170	 1879.00	 1866.63	-1276.57	 1527.23
     51.9430	 1877.00	 1866.99	-1278.93	 1527.00
     51.9690	 1834.00	 1867.37	-1322.30	 1526.77
     51.9950	 1802.00	 1867.77	-1354.71	 1526.54
     52.0210	 1804.00	 1868.20	-1353.14	 1526.31
     52.0470	 1902.00	 1868.66	-1255.60	 1526.07
     52.0730	 1904.00	 1869.15	-1254.09	 1525.84
     52.0990	 1891.00	 1869.68	-1267.62	 1525.61
     52.1250	 1878.00	 1870.23	-1281.17	 1525.37
     52.1510	 1767.00	 1870.83	-1392.76	 1525.14
     52.1770	 1819.00	 1871.46	-1341.40	 1524.91
     52.2030	 1804.00	 1872.13	-1357.07	 1524.67
     52.2290	 1902.00	 1872.84	-1259.78	 1524.43
     52.2550	 1921.00	 1873.60	-1241.54	 1524.20
     52.2810	 1797.00	 1874.41	-1366.34	 1523.96
     52.3070	 1786.00	 1875.26	-1378.20	 1523.73
     52.3330	 1854.00	 1876.17	-1311.11	 1523.49
     52.3590	 1857.00	 1877.14	-1309.08	 1523.25
     52.3850	 1870.00	 1878.17	-1297.11	 1523.01
     52.4110	 1825.00	 1879.26	-1343.20	 1522.77
     52.4370	 1829.00	 1880.42	-1340.36	 1522.53
     52.4630	 1882.00	 1881.66	-1288.60	 1522.29
     52.4890	 1825.00	 1882.97	-1346.91	 1522.05
     52.5150	 1860.00	 1884.36	-1313.30	 1521.81
     52.5410	 1913.00	 1885.84	-1261.78	 1521.57
     52.5670	 1877.00	 1887.41	-1299.35	 1521.33
     52.5930	 1866.00	 1889.08	-1312.02	 1521.09
     52.6190	 1834.00	 1890.85	-1345.79	 1520.84
     52.6450	 1875.00	 1892.73	-1306.67	 1520.60
     52.6710	 1929.00	 1894.73	-1254.67	 1520.36
     52.6970	 1924.00	 1896.84	-1261.78	 1520.11
     52.7230	 1820.00	 1899.09	-1368.03	 1519.87
     52.7490	 1851.00	 1901.46	-1339.40	 1519.62
     52.7750	 1886.00	 1903.98	-1306.92	 1519.38
     52.8010	 1897.00	 1906.64	-1298.58	 1519.13
     52.8270	 1924.00	 1909.46	-1274.39	 1518.88
     52.8530	 1898.00	 1912.43	-1303.36	 1518.64
     52.8790	 1934.00	 1915.55	-1270.49	 1518.39
     52.9050	 1905.00	 1918.84	-1302.78	 1518.14
     52.9310	 1889.00	 1922.29	-1322.23	 1517.89
     52.9570	 1916.00	 1925.91	-1298.84	 1517.64
     52.9830	 1891.00	 1929.68	-1327.61	 1517.39
     53.0090	 1917.00	 1933.60	-1305.54	 1517.14
     53.0350	 1909.00	 1937.66	-1317.60	 1516.89
     53.0610	 1956.00	 1941.85	-1274.79	 1516.64
     53.0870	 1924.00	 1946.15	-1311.08	 1516.39
     53.1130	 1933.00	 1950.52	-1306.46	 1516.13
     53.1390	 1973.00	 1954.95	-1270.89	 1515.88
     53.1650	 2016.00	 1959.40	-1232.34	 1515.63
     53.1910	 1972.00	 1963.81	-1280.75	 1515.37
     53.2170	 1988.00	 1968.15	-1269.09	 1515.12
     53.2430	 1989.00	 1972.36	-1272.30	 1514.86
     53.2690	 1946.00	 1976.37	-1319.31	 1514.61
     53.2950	 1948.00	 1980.14	-1321.07	 1514.35
     53.3210	 1960.00	 1983.58	-1312.52	 1514.09
     53.3470	 1991.00	 1986.64	-1284.58	 1513.84
     53.3730	 2016.00	 1989.27	-1262.20	 1513.58
     53.3990	 2071.00	 1991.39	-1209.33	 1513.32
     53.4250	 2086.00	 1992.98	-1195.92	 1513.06
     53.4510	 2002.00	 1994.00	-1280.94	 1512.80
     53.4770	 2016.00	 1994.41	-1267.35	 1512.54
     53.5030	 2017.00	 1994.22	-1266.16	 1512.28
     53.5290	 1981.00	 1993.43	-1301.37	 1512.02
     53.5550	 2001.00	 1992.05	-1279.99	 1511.76
     53.5810	 1968.00	 1990.12	-1311.06	 1511.50
     53.6070	 1999.00	 1987.67	-1277.61	 1511.24
     53.6330	 1987.00	 1984.75	-1286.69	 1510.98
     53.6590	 1928.00	 1981.43	-1342.37	 1510.71
     53.6850	 1953.00	 1977.75	-1313.69	 1510.45
     53.7110	 1960.00	 1973.79	-1302.72	 1510.18
     53.7370	 2009.00	 1969.60	-1249.53	 1509.92
     53.7630	 1971.00	 1965.24	-1283.18	 1509.65
     53.7890	 1922.00	 1960.77	-1327.71	 1509.39
     53.8150	 1909.00	 1956.24	-1336.18	 1509.12
     53.8410	 1899.00	 1951.70	-1341.64	 1508.86
     53.8670	 1903.00	 1947.19	-1333.12	 1508.59
     53.8930	 1951.00	 1942.73	-1280.67	 1508.32
     53.9190	 1974.00	 1938.37	-1253.31	 1508.05
     53.9450	 1967.00	 1934.13	-1256.07	 1507.78
     53.9710	 1951.00	 1930.01	-1267.95	 1507.52
     53.9970	 2000.00	 1926.05	-1214.98	 1507.25
     54.0230	 1934.00	 1922.23	-1277.17	 1506.98
     54.0490	 1925.00	 1918.58	-1282.52	 1506.71
     54.0750	 1988.00	 1915.10	-1216.03	 1506.44
     54.1010	 1938.00	 1911.78	-1262.71	 1506.16
     54.1270	 1908.00	 1908.62	-1289.56	 1505.89
     54.1530	 1965.00	 1905.63	-1229.57	 1505.62
     54.1790	 1952.00	 1902.80	-1239.74	 1505.35
     54.2050	 1869.00	 1900.12	-1320.06	 1505.08
     54.2310	 1909.00	 1897.60	-1277.54	 1504.80
     54.2570	 1889.00	 1895.22	-1295.16	 1504.53
     54.2830	 1894.00	 1892.98	-1287.92	 1504.25
     54.3090	 1942.00	 1890.87	-1237.81	 1503.98
     54.3350	 1843.00	 1888.89	-1334.83	 1503.70
     54.3610	 1875.00	 1887.04	-1300.97	 1503.43
     54.3870	 1920.00	 1885.30	-1254.23	 1503.15
     54.4130	 1862.00	 1883.67	-1310.61	 1502.88
     54.4390	 1801.00	 1882.15	-1370.09	 1502.60
     54.4650	 1902.00	 1880.73	-1267.67	 1502.32
     54.4910	 1899.00	 1879.41	-1269.34	 1502.05
     54.5170	 1912.00	 1878.18	-1255.11	 1501.77
     54.5430	 1881.00	 1877.04	-1284.97	 1501.49
     54.5690	 1859.00	 1875.98	-1305.92	 1501.21
     54.5950	 1825.00	 1875.00	-1338.94	 1500.93
     54.6210	 1960.00	 1874.11	-1203.05	 1500.65
     54.6470	 1908.00	 1873.29	-1254.23	 1500.37
     54.6730	 1845.00	 1872.54	-1316.48	 1500.09
     54.6990	 1797.00	 1871.86	-1363.80	 1499.81
     54.7250	 1910.00	 1871.25	-1250.19	 1499.53
     54.7510	 1877.00	 1870.70	-1282.64	 1499.25
     54.7770	 1906.00	 1870.22	-1253.16	 1498.97
     54.8030	 1839.00	 1869.80	-1319.74	 1498.69
     54.8290	 1875.00	 1869.44	-1283.38	 1498.41
     54.8550	 1918.00	 1869.14	-1240.08	 1498.12
     54.8810	 1834.00	 1868.90	-1323.84	 1497.84
     54.9070	 1879.00	 1868.71	-1278.65	 1497.56
     54.9330	 1847.00	 1868.59	-1310.53	 1497.27
     54.9590	 1856.00	 1868.52	-1301.46	 1496.99
     54.9850	 1897.00	 1868.50	-1260.44	 1496.71
     55.0110	 1896.00	 1868.54	-1261.48	 1496.42
     55.0370	 1884.00	 1868.64	-1273.58	 1496.14
     55.0630	 1870.00	 1868.79	-1287.73	 1495.85
     55.0890	 1902.00	 1869.00	-1255.94	 1495.57
     55.1150	 1890.00	 1869.27	-1268.21	 1495.28
     55.1410	 1845.00	 1869.59	-1313.53	 1495.00
     55.1670	 1858.00	 1869.98	-1300.91	 1494.71
     55.1930	 1838.00	 1870.42	-1321.36	 1494.42
     55.2190	 1889.00	 1870.92	-1270.86	 1494.14
     55.2450	 1858.00	 1871.48	-1302.42	 1493.85
     55.2710	 1925.00	 1872.11	-1236.05	 1493.56
     55.2970	 1889.00	 1872.80	-1272.74	 1493.28
     55.3230	 1819.00	 1873.56	-1343.50	 1492.99
     55.3490	 1869.00	 1874.39	-1294.33	 1492.70
     55.3750	 1894.00	 1875.29	-1270.23	 1492.41
     55.4010	 1847.00	 1876.27	-1318.20	 1492.12
     55.4270	 1824.00	 1877.32	-1342.25	 1491.84
     55.4530	 1831.00	 1878.45	-1336.39	 1491.55
     55.4790	 1827.00	 1879.66	-1341.60	 1491.26
     55.5050	 1827.00	 1880.96	-1342.90	 1490.97
     55.5310	 1882.00	 1882.35	-1289.29	 1490.68
     55.5570	 1867.00	 1883.84	-1305.78	 1490.39
     55.5830	 1824.00	 1885.42	-1350.36	 1490.10
     55.6090	 1830.00	 1887.11	-1346.05	 1489.81
     55.6350	 1869.00	 1888.91	-1308.85	 1489.52
     55.6610	 1914.00	 1890.82	-1265.76	 1489.23
     55.6870	 1918.00	 1892.85	-1263.79	 1488.94
     55.7130	 1920.00	 1895.01	-1263.95	 1488.65
     55.7390	 1901.00	 1897.31	-1285.25	 1488.36
     55.7650	 1865.00	 1899.74	-1323.68	 1488.07
     55.7910	 1858.00	 1902.33	-1333.26	 1487.78
     55.8170	 1937.00	 1905.07	-1257.01	 1487.49
     55.8430	 1962.00	 1907.98	-1234.91	 1487.20
     55.8690	 1937.00	 1911.06	-1263.00	 1486.91
     55.8950	 1888.00	 1914.33	-1315.27	 1486.62
     55.9210	 1863.00	 1917.80	-1343.73	 1486.32
     55.9470	 1865.00	 1921.47	-1345.41	 1486.03
     55.9730	 1915.00	 1925.37	-1299.31	 1485.74
     55.9990	 1946.00	 1929.50	-1272.44	 1485.45
     56.0250	 1896.00	 1933.88	-1326.82	 1485.16
     56.0510	 1899.00	 1938.52	-1328.46	 1484.87
     56.0770	 1959.00	 1943.44	-1273.37	 1484.57
     56.1030	 2017.00	 1948.65	-1220.59	 1484.28
     56.1290	 1991.00	 1954.17	-1252.11	 1483.99
     56.1550	 1957.00	 1960.02	-1291.95	 1483.70
     56.1810	 1997.00	 1966.21	-1258.15	 1483.41
     56.2070	 2008.00	 1972.77	-1253.70	 1483.11
     56.2330	 1981.00	 1979.70	-1287.64	 1482.82
     56.2590	 1968.00	 1987.04	-1307.98	 1482.53
     56.2850	 1991.00	 1994.80	-1292.74	 1482.24
     56.3110	 1993.00	 2002.99	-1298.93	 1481.95
     56.3370	 2005.00	 2011.63	-1295.57	 1481.65
     56.3630	 2051.00	 2020.74	-1258.68	 1481.36
     56.3890	 2085.00	 2030.33	-1234.27	 1481.07
     56.4150	 2048.00	 2040.41	-1281.34	 1480.78
     56.4410	 2041.00	 2050.97	-1298.91	 1480.49
     56.4670	 2022.00	 2062.03	-1328.97	 1480.19
     56.4930	 1992.00	 2073.58	-1370.51	 1479.90
     56.5190	 2075.00	 2085.59	-1299.52	 1479.61
     56.5450	 2108.00	 2098.04	-1278.98	 1479.32
     56.5710	 2126.00	 2110.90	-1273.84	 1479.03
     56.5970	 2132.00	 2124.11	-1281.05	 1478.73
     56.6230	 2086.00	 2137.61	-1340.55	 1478.44
     56.6490	 2167.00	 2151.32	-1273.25	 1478.15
     56.6750	 2148.00	 2165.13	-1306.07	 1477.86
     56.7010	 2209.00	 2178.93	-1258.87	 1477.57
     56.7270	 2206.00	 2192.59	-1275.52	 1477.28
     56.7530	 2221.00	 2205.94	-1273.88	 1476.98
     56.7790	 2220.00	 2218.82	-1287.76	 1476.69
     56.8050	 2173.00	 2231.06	-1346.99	 1476.40
     56.8310	 2230.00	 2242.45	-1301.39	 1476.11
     56.8570	 2275.00	 2252.82	-1266.76	 1475.82
     56.8830	 2256.00	 2261.97	-1294.91	 1475.53
     56.9090	 2274.00	 2269.73	-1284.67	 1475.24
     56.9350	 2314.00	 2275.96	-1250.90	 1474.95
     56.9610	 2227.00	 2280.52	-1342.45	 1474.66
     56.9870	 2265.00	 2283.31	-1307.25	 1474.37
     57.0130	 2317.00	 2284.28	-1256.21	 1474.08
     57.0390	 2264.00	 2283.40	-1308.34	 1473.79
     57.0650	 2258.00	 2280.70	-1311.63	 1473.50
     57.0910	 2243.00	 2276.22	-1322.16	 1473.21
     57.1170	 2243.00	 2270.07	-1316.01	 1472.92
     57.1430	 2277.00	 2262.36	-1274.30	 1472.63
     57.1690	 2283.00	 2253.23	-1259.17	 1472.34
     57.1950	 2226.00	 2242.87	-1305.80	 1472.05
     57.2210	 2186.00	 2231.42	-1334.36	 1471.76
     57.2470	 2242.00	 2219.10	-1266.03	 1471.47
     57.2730	 2213.00	 2206.06	-1282.00	 1471.18
     57.2990	 2282.00	 2192.50	-1199.44	 1470.90
     57.3250	 2257.00	 2178.58	-1210.51	 1470.61
     57.3510	 2195.00	 2164.44	-1258.38	 1470.32
     57.3770	 2216.00	 2150.24	-1223.18	 1470.03
     57.4030	 2212.00	 2136.10	-1213.04	 1469.74
     57.4290	 2116.00	 2122.11	-1295.05	 1469.46
     57.4550	 2137.00	 2108.36	-1260.30	 1469.17
     57.4810	 2149.00	 2094.93	-1234.87	 1468.88
     57.5070	 2117.00	 2081.88	-1253.82	 1468.60
     57.5330	 2156.00	 2069.25	-1202.18	 1468.31
     57.5590	 2076.00	 2057.06	-1269.99	 1468.03
     57.5850	 2010.00	 2045.34	-1324.27	 1467.74
     57.6110	 2061.00	 2034.10	-1262.04	 1467.45
     57.6370	 2059.00	 2023.34	-1253.28	 1467.17
     57.6630	 1984.00	 2013.07	-1318.01	 1466.89
     57.6890	 2007.00	 2003.28	-1285.22	 1466.60
     57.7150	 1993.00	 1993.95	-1289.89	 1466.32
     57.7410	 1977.00	 1985.08	-1297.02	 1466.03
     57.7670	 2017.00	 1976.65	-1248.59	 1465.75
     57.7930	 1962.00	 1968.64	-1295.58	 1465.47
     57.8190	 1955.00	 1961.04	-1294.98	 1465.18
     57.8450	 1940.00	 1953.83	-1302.77	 1464.90
     57.8710	 1970.00	 1946.98	-1265.92	 1464.62
     57.8970	 1970.00	 1940.49	-1259.43	 1464.34
     57.9230	 1904.00	 1934.34	-1319.27	 1464.05
     57.9490	 1852.00	 1928.50	-1365.43	 1463.77
     57.9750	 1871.00	 1922.95	-1340.89	 1463.49
     58.0010	 1872.00	 1917.70	-1334.64	 1463.21
     58.0270	 1893.00	 1912.71	-1308.65	 1462.93
     58.0530	 1908.00	 1907.97	-1288.91	 1462.65
     58.0790	 1869.00	 1903.47	-1323.41	 1462.37
     58.1050	 1865.00	 1899.20	-1323.14	 1462.09
     58.1310	 1912.00	 1895.15	-1272.08	 1461.81
     58.1570	 1809.00	 1891.29	-1371.23	 1461.53
     58.1830	 1820.00	 1887.62	-1356.56	 1461.25
     58.2090	 1877.00	 1884.13	-1296.07	 1460.98
     58.2350	 1838.00	 1880.81	-1331.75	 1460.70
     58.2610	 1888.00	 1877.66	-1278.59	 1460.42
     58.2870	 1827.00	 1874.65	-1336.59	 1460.15
     58.3130	 1859.00	 1871.79	-1301.72	 1459.87
     58.3390	 1875.00	 1869.06	-1282.99	 1459.59
     58.3650	 1875.00	 1866.45	-1280.39	 1459.32
     58.3910	 1850.00	 1863.97	-1302.91	 1459.04
     58.4170	 1773.00	 1861.61	-1377.55	 1458.77
     58.4430	 1889.00	 1859.35	-1259.29	 1458.49
     58.4690	 1870.00	 1857.20	-1276.14	 1458.22
     58.4950	 1818.00	 1855.14	-1326.08	 1457.95
     58.5210	 1862.00	 1853.18	-1280.12	 1457.67
     58.5470	 1894.00	 1851.31	-1246.25	 1457.40
     58.5730	 1845.00	 1849.52	-1293.46	 1457.13
     58.5990	 1818.00	 1847.81	-1318.75	 1456.85
     58.6250	 1824.00	 1846.18	-1311.12	 1456.58
     58.6510	 1805.00	 1844.62	-1328.56	 1456.31
     58.6770	 1819.00	 1843.13	-1313.07	 1456.04
     58.7030	 1817.00	 1841.71	-1313.65	 1455.77
     58.7290	 1813.00	 1840.35	-1316.29	 1455.50
     58.7550	 1823.00	 1839.05	-1304.99	 1455.23
     58.7810	 1790.00	 1837.81	-1336.75	 1454.96
     58.8070	 1818.00	 1836.63	-1307.57	 1454.69
     58.8330	 1906.00	 1835.50	-1218.44	 1454.43
     58.8590	 1914.00	 1834.43	-1209.36	 1454.16
     58.8850	 1878.00	 1833.40	-1244.34	 1453.89
     58.9110	 1857.00	 1832.38	-1264.32	 1453.62
     58.9370	 1844.00	 1831.45	-1276.39	 1453.36
     58.9630	 1825.00	 1830.55	-1294.49	 1453.09
     58.9890	 1783.00	 1829.71	-1335.64	 1452.83
     59.0150	 1807.00	 1828.91	-1310.84	 1452.56
     59.0410	 1857.00	 1828.15	-1260.09	 1452.30
     59.0670	 1834.00	 1827.43	-1282.37	 1452.03
     59.0930	 1850.00	 1826.75	-1265.69	 1451.77
     59.1190	 1821.00	 1826.11	-1294.04	 1451.51
     59.1450	 1846.00	 1825.50	-1268.44	 1451.24
     59.1710	 1874.00	 1824.93	-1239.87	 1450.98
     59.1970	 1881.00	 1824.40	-1232.33	 1450.72
     59.2230	 1849.00	 1823.90	-1263.83	 1450.46
     59.2490	 1880.00	 1823.43	-1232.37	 1450.20
     59.2750	 1867.00	 1823.00	-1244.93	 1449.94
     59.3010	 1830.00	 1822.59	-1281.53	 1449.68
     59.3270	 1862.00	 1822.23	-1249.16	 1449.42
     59.3530	 1891.00	 1821.89	-1219.83	 1449.16
     59.3790	 1799.00	 1821.58	-1311.52	 1448.90
     59.4050	 1846.00	 1821.31	-1264.25	 1448.64
     59.4310	 1866.00	 1821.06	-1244.00	 1448.38
     59.4570	 1829.00	 1820.85	-1280.79	 1448.13
     59.4830	 1867.00	 1820.67	-1242.61	 1447.87
     59.5090	 1944.00	 1820.51	-1165.45	 1447.61
     59.5350	 1930.00	 1820.39	-1179.33	 1447.36
     59.5610	 1915.00	 1820.30	-1194.23	 1447.10
     59.5870	 1836.00	 1820.23	-1273.17	 1446.85
     59.6130	 1901.00	 1820.20	-1208.14	 1446.59
     59.6390	 1850.00	 1820.19	-1259.13	 1446.34
     59.6650	 1836.00	 1820.22	-1273.16	 1446.09
     59.6910	 1829.00	 1820.28	-1280.22	 1445.83
     59.7170	 1885.00	 1820.36	-1224.30	 1445.58
     59.7430	 1854.00	 1820.48	-1255.42	 1445.33
     59.7690	 1779.00	 1820.63	-1330.57	 1445.08
     59.7950	 1862.00	 1820.81	-1247.75	 1444.83
     59.8210	 1857.00	 1821.02	-1252.96	 1444.58
     59.8470	 1893.00	 1821.26	-1217.20	 1444.33
     59.8730	 1852.00	 1821.54	-1258.48	 1444.08
     59.8990	 1885.00	 1821.85	-1225.79	 1443.83
     59.9250	 1846.00	 1822.19	-1265.13	 1443.58
     59.9510	 1813.00	 1822.57	-1298.51	 1443.33
     59.9770	 1815.00	 1822.98	-1296.92	 1443.08
     60.0030	 1886.00	 1823.43	-1226.37	 1442.84
     60.0290	 1786.00	 1823.91	-1326.85	 1442.59
     60.0550	 1807.00	 1824.43	-1306.37	 1442.34
     60.0810	 1907.00	 1824.99	-1206.93	 1442.10
     60.1070	 1917.00	 1825.59	-1197.53	 1441.85
     60.1330	 1922.00	 1826.23	-1193.17	 1441.61
     60.1590	 1909.00	 1826.91	-1206.85	 1441.36
     60.1850	 1802.00	 1827.63	-1314.57	 1441.12
     60.2110	 1831.00	 1828.40	-1286.34	 1440.87
     60.2370	 1782.00	 1829.21	-1336.15	 1440.63
     60.2630	 1820.00	 1830.07	-1299.01	 1440.39
     60.2890	 1830.00	 1830.97	-1289.91	 1440.15
     60.3150	 1899.00	 1831.93	-1221.86	 1439.90
     60.3410	 1891.00	 1832.93	-1230.87	 1439.66
     60.3670	 1819.00	 1833.99	-1303.93	 1439.42
     60.3930	 1829.00	 1835.10	-1295.04	 1439.18
     60.4190	 1850.00	 1836.27	-1275.21	 1438.94
     60.4450	 1899.00	 1837.50	-1227.43	 1438.70
     60.4710	 1818.00	 1838.78	-1309.72	 1438.46
     60.4970	 1846.00	 1840.13	-1283.07	 1438.22
     60.5230	 1877.00	 1841.55	-1253.49	 1437.98
     60.5490	 1847.00	 1843.03	-1284.97	 1437.75
     60.5750	 1830.00	 1844.59	-1303.53	 1437.51
     60.6010	 1921.00	 1846.22	-1214.16	 1437.27
     60.6270	 1926.00	 1847.92	-1210.86	 1437.04
     60.6530	 1821.00	 1849.71	-1317.65	 1436.80
     60.6790	 1868.00	 1851.58	-1272.52	 1436.56
     60.7050	 1892.00	 1853.54	-1250.47	 1436.33
     60.7310	 1903.00	 1855.58	-1241.52	 1436.09
     60.7570	 1847.00	 1857.73	-1299.66	 1435.86
     60.7830	 1862.00	 1859.97	-1286.91	 1435.62
     60.8090	 1869.00	 1862.32	-1282.25	 1435.39
     60.8350	 1883.00	 1864.77	-1270.71	 1435.15
     60.8610	 1843.00	 1867.34	-1313.28	 1434.92
     60.8870	 1793.00	 1870.03	-1365.97	 1434.69
     60.9130	 1825.00	 1872.85	-1336.78	 1434.45
     60.9390	 1774.00	 1875.79	-1390.73	 1434.22
     60.9650	 1862.00	 1878.88	-1305.82	 1433.99
     60.9910	 1892.00	 1882.11	-1279.05	 1433.76
     61.0170	 1878.00	 1885.50	-1296.44	 1433.53
     61.0430	 1844.00	 1889.04	-1333.98	 1433.30
     61.0690	 1860.00	 1892.76	-1321.70	 1433.07
     61.0950	 1889.00	 1896.66	-1296.59	 1432.84
     61.1210	 1941.00	 1900.74	-1248.68	 1432.61
     61.1470	 1979.00	 1905.02	-1214.96	 1432.38
     61.1730	 1945.00	 1909.51	-1253.45	 1432.15
     61.1990	 1903.00	 1914.23	-1300.17	 1431.92
     61.2250	 1848.00	 1919.18	-1360.11	 1431.69
     61.2510	 1858.00	 1924.37	-1355.31	 1431.46
     61.2770	 1891.00	 1929.83	-1327.76	 1431.23
     61.3030	 1900.00	 1935.56	-1324.50	 1431.00
     61.3290	 1900.00	 1941.58	-1330.52	 1430.78
     61.3550	 1843.00	 1947.91	-1393.85	 1430.55
     61.3810	 1871.00	 1954.57	-1372.51	 1430.32
     61.4070	 1923.00	 1961.58	-1327.52	 1430.09
     61.4330	 1898.00	 1968.95	-1359.89	 1429.87
     61.4590	 1934.00	 1976.71	-1331.65	 1429.64
     61.4850	 1969.00	 1984.88	-1304.82	 1429.42
     61.5110	 1914.00	 1993.49	-1368.43	 1429.19
     61.5370	 1912.00	 2002.56	-1379.50	 1428.96
     61.5630	 1960.00	 2012.12	-1341.06	 1428.74
     61.5890	 1913.00	 2022.19	-1398.13	 1428.51
     61.6150	 1923.00	 2032.81	-1398.75	 1428.29
     61.6410	 1988.00	 2044.02	-1344.95	 1428.06
     61.6670	 2019.00	 2055.83	-1325.77	 1427.84
     61.6930	 1966.00	 2068.29	-1391.23	 1427.61
     61.7190	 1909.00	 2081.43	-1461.37	 1427.39
     61.7450	 1948.00	 2095.30	-1436.24	 1427.17
     61.7710	 2033.00	 2109.92	-1365.85	 1426.94
     61.7970	 2088.00	 2125.33	-1326.27	 1426.72
     61.8230	 2115.00	 2141.58	-1315.52	 1426.49
     61.8490	 2059.00	 2158.71	-1388.64	 1426.27
     61.8750	 2106.00	 2176.73	-1359.67	 1426.05
     61.9010	 2157.00	 2195.71	-1327.65	 1425.82
     61.9270	 2206.00	 2215.66	-1298.60	 1425.60
     61.9530	 2235.00	 2236.62	-1290.55	 1425.38
     61.9790	 2204.00	 2258.59	-1343.53	 1425.15
     62.0050	 2154.00	 2281.61	-1416.55	 1424.93
     62.0310	 2156.00	 2305.68	-1438.62	 1424.71
     62.0570	 2232.00	 2330.78	-1387.72	 1424.49
     62.0830	 2305.00	 2356.89	-1340.83	 1424.26
     62.1090	 2368.00	 2383.98	-1304.92	 1424.04
     62.1350	 2416.00	 2411.98	-1284.92	 1423.82
     62.1610	 2435.00	 2440.81	-1294.75	 1423.60
     62.1870	 2518.00	 2470.35	-1241.29	 1423.37
     62.2130	 2631.00	 2500.46	-1158.40	 1423.15
     62.2390	 2595.00	 2530.95	-1224.89	 1422.93
     62.2650	 2532.00	 2561.62	-1318.56	 1422.71
     62.2910	 2526.00	 2592.21	-1355.15	 1422.48
     62.3170	 2693.00	 2622.44	-1218.38	 1422.26
     62.3430	 2738.00	 2651.98	-1202.92	 1422.04
     62.3690	 2711.00	 2680.48	-1258.42	 1421.82
     62.3950	 2715.00	 2707.57	-1281.51	 1421.59
     62.4210	 2812.00	 2732.87	-1209.81	 1421.37
     62.4470	 2774.00	 2755.98	-1270.92	 1421.15
     62.4730	 2795.00	 2776.52	-1270.46	 1420.93
     62.4990	 2855.00	 2794.15	-1228.09	 1420.70
     62.5250	 2900.00	 2808.54	-1197.48	 1420.48
     62.5510	 2916.00	 2819.44	-1192.38	 1420.26
     62.5770	 2912.00	 2826.63	-1203.57	 1420.03
     62.6030	 2836.00	 2829.98	-1282.92	 1419.81
     62.6290	 2851.00	 2829.44	-1267.38	 1419.59
     62.6550	 2923.00	 2825.02	-1190.96	 1419.36
     62.6810	 2907.00	 2816.81	-1198.75	 1419.14
     62.7070	 2836.00	 2804.99	-1257.92	 1418.92
     62.7330	 2860.00	 2789.76	-1218.70	 1418.69
     62.7590	 2799.00	 2771.41	-1261.35	 1418.47
     62.7850	 2958.00	 2750.27	-1081.20	 1418.25
     62.8110	 2791.00	 2726.66	-1224.60	 1418.02
     62.8370	 2761.00	 2700.96	-1228.90	 1417.80
     62.8630	 2677.00	 2673.54	-1285.48	 1417.57
     62.8890	 2683.00	 2644.77	-1250.71	 1417.35
     62.9150	 2633.00	 2615.00	-1270.94	 1417.12
     62.9410	 2638.00	 2584.56	-1235.49	 1416.90
     62.9670	 2531.00	 2553.75	-1311.69	 1416.67
     62.9930	 2544.00	 2522.86	-1267.79	 1416.44
     63.0190	 2474.00	 2492.11	-1307.05	 1416.22
     63.0450	 2467.00	 2461.72	-1283.66	 1415.99
     63.0710	 2449.00	 2431.87	-1271.81	 1415.76
     63.0970	 2394.00	 2402.71	-1297.65	 1415.54
     63.1230	 2373.00	 2374.33	-1290.27	 1415.31
     63.1490	 2316.00	 2346.83	-1319.77	 1415.08
     63.1750	 2315.00	 2320.28	-1294.22	 1414.85
     63.2010	 2273.00	 2294.72	-1310.66	 1414.63
     63.2270	 2323.00	 2270.17	-1236.11	 1414.40
     63.2530	 2284.00	 2246.65	-1251.59	 1414.17
     63.2790	 2251.00	 2224.15	-1262.09	 1413.94
     63.3050	 2162.00	 2202.66	-1329.60	 1413.71
     63.3310	 2134.00	 2182.16	-1337.10	 1413.48
     63.3570	 2084.00	 2162.63	-1367.56	 1413.25
     63.3830	 2055.00	 2144.03	-1377.97	 1413.02
     63.4090	 2054.00	 2126.34	-1361.28	 1412.78
     63.4350	 2021.00	 2109.51	-1377.45	 1412.55
     63.4610	 2031.00	 2093.52	-1351.46	 1412.32
     63.4870	 1987.00	 2078.32	-1380.26	 1412.09
     63.5130	 1952.00	 2063.87	-1400.81	 1411.85
     63.5390	 1975.00	 2050.14	-1364.08	 1411.62
     63.5650	 1951.00	 2037.10	-1375.04	 1411.38
     63.5910	 1937.00	 2024.70	-1376.64	 1411.15
     63.6170	 1915.00	 2012.91	-1386.85	 1410.91
     63.6430	 1893.00	 2001.70	-1397.64	 1410.68
     63.6690	 1906.00	 1991.04	-1373.98	 1410.44
     63.6950	 1923.00	 1980.90	-1346.84	 1410.20
     63.7210	 1911.00	 1971.25	-1349.19	 1409.97
     63.7470	 1886.00	 1962.06	-1364.99	 1409.73
     63.7730	 1890.00	 1953.30	-1352.24	 1409.49
     63.7990	 1849.00	 1944.96	-1384.89	 1409.25
     63.8250	 1867.00	 1937.00	-1358.94	 1409.01
     63.8510	 1893.00	 1929.41	-1325.35	 1408.77
     63.8770	 1899.00	 1922.17	-1312.11	 1408.53
     63.9030	 1911.00	 1915.25	-1293.19	 1408.29
     63.9290	 1919.00	 1908.65	-1278.58	 1408.04
     63.9550	 1904.00	 1902.33	-1287.27	 1407.80
     63.9810	 1860.00	 1896.29	-1325.23	 1407.56
     64.0070	 1877.00	 1890.51	-1302.45	 1407.31
     64.0330	 1878.00	 1884.98	-1295.92	 1407.06
     64.0590	 1864.00	 1879.69	-1304.62	 1406.82
     64.0850	 1840.00	 1874.61	-1323.55	 1406.57
     64.1110	 1807.00	 1869.74	-1351.68	 1406.32
     64.1370	 1864.00	 1865.07	-1290.01	 1406.08
     64.1630	 1844.00	 1860.59	-1305.53	 1405.83
     64.1890	 1815.00	 1856.29	-1330.23	 1405.58
     64.2150	 1862.00	 1852.16	-1279.10	 1405.33
     64.2410	 1869.00	 1848.19	-1268.13	 1405.07
     64.2670	 1875.00	 1844.37	-1258.31	 1404.82
     64.2930	 1844.00	 1840.70	-1285.64	 1404.57
     64.3190	 1852.00	 1837.17	-1274.11	 1404.31
     64.3450	 1850.00	 1833.77	-1272.71	 1404.06
     64.3710	 1792.00	 1830.49	-1327.43	 1403.80
     64.3970	 1769.00	 1827.34	-1347.27	 1403.55
     64.4230	 1797.00	 1824.29	-1316.23	 1403.29
     64.4490	 1817.00	 1821.36	-1293.30	 1403.03
     64.4750	 1843.00	 1818.54	-1264.47	 1402.77
     64.5010	 1919.00	 1815.81	-1185.75	 1402.51
     64.5270	 1899.00	 1813.18	-1203.11	 1402.25
     64.5530	 1834.00	 1810.64	-1265.57	 1401.99
     64.5790	 1783.00	 1808.18	-1314.12	 1401.72
     64.6050	 1802.00	 1805.82	-1292.75	 1401.46
     64.6310	 1845.00	 1803.53	-1247.47	 1401.19
     64.6570	 1849.00	 1801.32	-1241.26	 1400.93
     64.6830	 1838.00	 1799.19	-1250.13	 1400.66
     64.7090	 1797.00	 1797.13	-1289.07	 1400.39
     64.7350	 1800.00	 1795.14	-1284.07	 1400.12
     64.7610	 1827.00	 1793.21	-1255.15	 1399.85
     64.7870	 1797.00	 1791.36	-1283.30	 1399.58
     64.8130	 1851.00	 1789.56	-1227.50	 1399.31
     64.8390	 1818.00	 1787.83	-1258.77	 1399.04
     64.8650	 1787.00	 1786.16	-1288.10	 1398.76
     64.8910	 1833.00	 1784.55	-1240.49	 1398.49
     64.9170	 1828.00	 1782.99	-1243.93	 1398.21
     64.9430	 1851.00	 1781.49	-1219.43	 1397.93
     64.9690	 1834.00	 1780.04	-1234.98	 1397.65
     64.9950	 1852.00	 1778.65	-1215.59	 1397.37
     65.0210	 1825.00	 1777.31	-1241.25	 1397.09
     65.0470	 1836.00	 1776.02	-1228.96	 1396.81
     65.0730	 1892.00	 1774.78	-1171.72	 1396.52
     65.0990	 1887.00	 1773.59	-1175.53	 1396.24
     65.1250	 1772.00	 1772.45	-1289.39	 1395.95
     65.1510	 1863.00	 1771.36	-1197.30	 1395.67
     65.1770	 1831.00	 1770.31	-1228.25	 1395.38
     65.2030	 1817.00	 1769.31	-1241.25	 1395.09
     65.2290	 1751.00	 1768.36	-1306.29	 1394.80
     65.2550	 1817.00	 1767.44	-1239.38	 1394.50
     65.2810	 1801.00	 1766.57	-1254.51	 1394.21
     65.3070	 1816.00	 1765.75	-1238.68	 1393.92
     65.3330	 1836.00	 1764.96	-1217.90	 1393.62
     65.3590	 1806.00	 1764.21	-1247.14	 1393.32
     65.3850	 1846.00	 1763.49	-1206.43	 1393.02
     65.4110	 1861.00	 1762.80	-1190.74	 1392.72
     65.4370	 1817.00	 1762.15	-1234.09	 1392.42
     65.4630	 1861.00	 1761.52	-1189.46	 1392.12
     65.4890	 1826.00	 1760.91	-1223.85	 1391.81
     65.5150	 1801.00	 1760.31	-1248.25	 1391.51
     65.5410	 1776.00	 1759.73	-1272.67	 1391.20
     65.5670	 1736.00	 1759.15	-1312.09	 1390.89
     65.5930	 1828.00	 1758.58	-1219.52	 1390.58
     65.6190	 1809.00	 1757.99	-1237.93	 1390.27
     65.6450	 1882.00	 1757.39	-1164.33	 1389.96
     65.6710	 1882.00	 1756.77	-1163.71	 1389.65
     65.6970	 1883.00	 1756.13	-1162.07	 1389.33
     65.7230	 1844.00	 1755.45	-1200.39	 1389.02
     65.7490	 1829.00	 1754.74	-1214.68	 1388.70
     65.7750	 1837.00	 1753.98	-1205.92	 1388.38
     65.8010	 1874.00	 1753.18	-1168.12	 1388.06
     65.8270	 1821.00	 1752.33	-1220.27	 1387.73
     65.8530	 1745.00	 1751.43	-1295.37	 1387.41
     65.8790	 1795.00	 1750.49	-1244.43	 1387.08
     65.9050	 1826.00	 1749.50	-1212.43	 1386.76
     65.9310	 1839.00	 1748.46	-1198.40	 1386.43
     65.9570	 1816.00	 1747.38	-1220.31	 1386.10
     65.9830	 1786.00	 1746.26	-1249.20	 1385.77
     66.0090	 1822.00	 1745.10	-1212.04	 1385.43
     66.0350	 1828.00	 1743.92	-1204.86	 1385.10
     66.0610	 1817.00	 1742.71	-1214.65	 1384.76
     66.0870	 1817.00	 1741.49	-1213.43	 1384.42
     66.1130	 1776.00	 1740.25	-1253.19	 1384.08
     66.1390	 1837.00	 1739.00	-1190.94	 1383.74
     66.1650	 1829.00	 1737.75	-1197.69	 1383.40
     66.1910	 1798.00	 1736.50	-1227.44	 1383.06
     66.2170	 1802.00	 1735.25	-1222.19	 1382.71
     66.2430	 1732.00	 1734.02	-1290.95	 1382.36
     66.2690	 1764.00	 1732.79	-1257.73	 1382.01
     66.2950	 1777.00	 1731.58	-1243.52	 1381.66
     66.3210	 1787.00	 1730.38	-1232.32	 1381.31
     66.3470	 1782.00	 1729.21	-1236.14	 1380.95
     66.3730	 1778.00	 1728.05	-1238.99	 1380.60
     66.3990	 1821.00	 1726.91	-1194.85	 1380.24
     66.4250	 1844.00	 1725.79	-1170.73	 1379.88
     66.4510	 1792.00	 1724.70	-1221.64	 1379.52
     66.4770	 1770.00	 1723.62	-1242.56	 1379.16
     66.5030	 1783.00	 1722.57	-1228.51	 1378.79
     66.5290	 1796.00	 1721.54	-1214.47	 1378.43
     66.5550	 1773.00	 1720.52	-1236.46	 1378.06
     66.5810	 1755.00	 1719.53	-1253.47	 1377.69
     66.6070	 1766.00	 1718.56	-1241.50	 1377.32
     66.6330	 1749.00	 1717.60	-1257.54	 1376.95
     66.6590	 1765.00	 1716.67	-1240.60	 1376.57
     66.6850	 1797.00	 1715.75	-1207.68	 1376.20
     66.7110	 1779.00	 1714.84	-1224.78	 1375.82
     66.7370	 1757.00	 1713.95	-1245.89	 1375.44
     66.7630	 1715.00	 1713.08	-1287.02	 1375.06
     66.7890	 1671.00	 1712.22	-1330.16	 1374.67
     66.8150	 1702.00	 1711.37	-1298.31	 1374.29
     66.8410	 1733.00	 1710.54	-1266.48	 1373.90
     66.8670	 1756.00	 1709.72	-1242.66	 1373.51
     66.8930	 1740.00	 1708.91	-1257.85	 1373.12
     66.9190	 1713.00	 1708.11	-1284.05	 1372.73
     66.9450	 1704.00	 1707.32	-1292.26	 1372.33
     66.9710	 1675.00	 1706.55	-1320.48	 1371.94
     66.9970	 1670.00	 1705.78	-1324.71	 1371.54
     67.0230	 1690.00	 1705.02	-1303.95	 1371.14
     67.0490	 1710.00	 1704.26	-1283.20	 1370.74
     67.0750	 1692.00	 1703.52	-1300.46	 1370.34
     67.1010	 1759.00	 1702.78	-1232.72	 1369.93
     67.1270	 1763.00	 1702.05	-1227.99	 1369.52
     67.1530	 1693.00	 1701.33	-1297.27	 1369.12
     67.1790	 1724.00	 1700.62	-1265.55	 1368.70
     67.2050	 1791.00	 1699.91	-1197.84	 1368.29
     67.2310	 1764.00	 1699.20	-1224.14	 1367.88
     67.2570	 1744.00	 1698.51	-1243.44	 1367.46
     67.2830	 1785.00	 1697.81	-1201.75	 1367.04
     67.3090	 1667.00	 1697.13	-1319.07	 1366.62
     67.3350	 1660.00	 1696.45	-1325.38	 1366.20
     67.3610	 1706.00	 1695.77	-1278.71	 1365.78
     67.3870	 1680.00	 1695.10	-1304.03	 1365.35
     67.4130	 1683.00	 1694.43	-1300.37	 1364.93
     67.4390	 1704.00	 1693.76	-1278.70	 1364.50
     67.4650	 1717.00	 1693.10	-1265.04	 1364.07
     67.4910	 1738.00	 1692.45	-1243.39	 1363.63
     67.5170	 1694.00	 1691.80	-1286.74	 1363.20
     67.5430	 1776.00	 1691.15	-1204.09	 1362.76
     67.5690	 1613.00	 1690.50	-1366.44	 1362.32
     67.5950	 1624.00	 1689.86	-1354.80	 1361.88
     67.6210	 1590.00	 1689.22	-1388.16	 1361.44
     67.6470	 1665.00	 1688.59	-1312.52	 1361.00
     67.6730	 1641.00	 1687.95	-1335.89	 1360.55
     67.6990	 1711.00	 1687.32	-1265.26	 1360.10
     67.7250	 1650.00	 1686.69	-1325.63	 1359.65
     67.7510	 1699.00	 1686.07	-1276.01	 1359.20
     67.7770	 1707.00	 1685.44	-1267.38	 1358.75
     67.8030	 1695.00	 1684.82	-1278.76	 1358.29
     67.8290	 1614.00	 1684.20	-1359.14	 1357.84
     67.8550	 1686.00	 1683.59	-1286.52	 1357.38
     67.8810	 1633.00	 1682.97	-1338.91	 1356.92
     67.9070	 1658.00	 1682.36	-1313.30	 1356.46
     67.9330	 1783.00	 1681.75	-1187.68	 1355.99
     67.9590	 1768.00	 1681.14	-1202.07	 1355.52
     67.9850	 1774.00	 1680.53	-1195.47	 1355.06
     68.0110	 1676.00	 1679.92	-1292.86	 1354.59
     68.0370	 1677.00	 1679.32	-1291.25	 1354.11
     68.0630	 1639.00	 1678.71	-1328.65	 1353.64
     68.0890	 1643.00	 1678.11	-1324.05	 1353.16
     68.1150	 1666.00	 1677.51	-1300.45	 1352.69
     68.1410	 1629.00	 1676.91	-1336.85	 1352.21
     68.1670	 1636.00	 1676.31	-1329.25	 1351.73
     68.1930	 1708.00	 1675.71	-1256.65	 1351.24
     68.2190	 1690.00	 1675.12	-1274.06	 1350.76
     68.2450	 1643.00	 1674.52	-1320.46	 1350.27
     68.2710	 1623.00	 1673.93	-1339.87	 1349.78
     68.2970	 1651.00	 1673.34	-1311.27	 1349.29
     68.3230	 1670.00	 1672.74	-1291.68	 1348.80
     68.3490	 1600.00	 1672.15	-1361.09	 1348.31
     68.3750	 1707.00	 1671.56	-1253.50	 1347.81
     68.4010	 1744.00	 1670.97	-1215.91	 1347.31
     68.4270	 1684.00	 1670.39	-1275.32	 1346.81
     68.4530	 1673.00	 1669.80	-1285.74	 1346.31
     68.4790	 1677.00	 1669.21	-1281.15	 1345.81
     68.5050	 1619.00	 1668.63	-1338.57	 1345.31
     68.5310	 1670.00	 1668.05	-1286.98	 1344.80
     68.5570	 1754.00	 1667.46	-1202.40	 1344.29
     68.5830	 1633.00	 1666.88	-1322.82	 1343.78
     68.6090	 1563.00	 1666.30	-1392.24	 1343.27
     68.6350	 1620.00	 1665.72	-1334.66	 1342.76
     68.6610	 1671.00	 1665.14	-1283.08	 1342.24
     68.6870	 1653.00	 1664.56	-1300.50	 1341.72
     68.7130	 1669.00	 1663.98	-1283.92	 1341.20
     68.7390	 1605.00	 1663.41	-1347.35	 1340.68
     68.7650	 1631.00	 1662.83	-1320.77	 1340.16
     68.7910	 1622.00	 1662.26	-1329.20	 1339.64
     68.8170	 1584.00	 1661.69	-1366.63	 1339.11
     68.8430	 1643.00	 1661.12	-1307.05	 1338.59
     68.8690	 1660.00	 1660.55	-1289.48	 1338.06
     68.8950	 1611.00	 1659.98	-1337.91	 1337.53
     68.9210	 1604.00	 1659.41	-1344.35	 1336.99
     68.9470	 1616.00	 1658.84	-1331.78	 1336.46
     68.9730	 1630.00	 1658.28	-1317.22	 1335.92
     68.9990	 1650.00	 1657.71	-1296.65	 1335.39
     69.0250	 1640.00	 1657.15	-1306.09	 1334.85
     69.0510	 1621.00	 1656.59	-1324.53	 1334.31
     69.0770	 1644.00	 1656.03	-1300.97	 1333.77
     69.1030	 1621.00	 1655.47	-1323.41	 1333.22
     69.1290	 1583.00	 1654.92	-1360.86	 1332.68
     69.1550	 1587.00	 1654.37	-1356.30	 1332.13
     69.1810	 1607.00	 1653.81	-1335.75	 1331.58
     69.2070	 1620.00	 1653.27	-1322.20	 1331.03
     69.2330	 1630.00	 1652.72	-1311.66	 1330.48
     69.2590	 1625.00	 1652.17	-1316.11	 1329.93
     69.2850	 1634.00	 1651.63	-1306.57	 1329.38
     69.3110	 1661.00	 1651.09	-1279.03	 1328.82
     69.3370	 1643.00	 1650.56	-1296.49	 1328.26
     69.3630	 1633.00	 1650.02	-1305.96	 1327.70
     69.3890	 1589.00	 1649.49	-1349.43	 1327.14
     69.4150	 1561.00	 1648.96	-1376.90	 1326.58
     69.4410	 1616.00	 1648.44	-1321.38	 1326.02
     69.4670	 1642.00	 1647.92	-1294.86	 1325.45
     69.4930	 1637.00	 1647.40	-1299.34	 1324.89
     69.5190	 1585.00	 1646.89	-1350.83	 1324.32
     69.5450	 1574.00	 1646.38	-1361.32	 1323.75
     69.5710	 1579.00	 1645.88	-1355.82	 1323.18
     69.5970	 1600.00	 1645.38	-1334.32	 1322.61
     69.6230	 1614.00	 1644.88	-1319.82	 1322.04
     69.6490	 1648.00	 1644.40	-1285.33	 1321.47
     69.6750	 1645.00	 1643.91	-1287.85	 1320.89
     69.7010	 1641.00	 1643.44	-1291.37	 1320.31
     69.7270	 1631.00	 1642.97	-1300.90	 1319.74
     69.7530	 1627.00	 1642.50	-1304.44	 1319.16
     69.7790	 1602.00	 1642.05	-1328.98	 1318.58
     69.8050	 1600.00	 1641.60	-1330.53	 1318.00
     69.8310	 1559.00	 1641.16	-1371.09	 1317.41
     69.8570	 1620.00	 1640.72	-1309.66	 1316.83
     69.8830	 1625.00	 1640.30	-1304.24	 1316.24
     69.9090	 1610.00	 1639.89	-1318.82	 1315.66
     69.9350	 1661.00	 1639.48	-1267.42	 1315.07
     69.9610	 1680.00	 1639.09	-1248.03	 1314.48
     69.9870	 1607.00	 1638.71	-1320.64	 1313.89
     70.0130	 1647.00	 1638.34	-1280.27	 1313.30
     70.0390	 1607.00	 1637.98	-1319.92	 1312.71
     70.0650	 1595.00	 1637.63	-1331.57	 1312.12
     70.0910	 1583.00	 1637.30	-1343.24	 1311.52
     70.1170	 1599.00	 1636.99	-1326.93	 1310.93
     70.1430	 1564.00	 1636.69	-1361.63	 1310.33
     70.1690	 1629.00	 1636.40	-1296.34	 1309.74
     70.1950	 1599.00	 1636.14	-1326.07	 1309.14
     70.2210	 1657.00	 1635.89	-1267.83	 1308.54
     70.2470	 1656.00	 1635.66	-1268.59	 1307.94
     70.2730	 1610.00	 1635.44	-1314.38	 1307.34
     70.2990	 1614.00	 1635.25	-1310.19	 1306.74
     70.3250	 1552.00	 1635.08	-1372.02	 1306.14
     70.3510	 1608.00	 1634.93	-1315.87	 1305.54
     70.3770	 1574.00	 1634.80	-1349.74	 1304.93
     70.4030	 1614.00	 1634.69	-1309.63	 1304.33
     70.4290	 1550.00	 1634.61	-1373.55	 1303.72
     70.4550	 1667.00	 1634.54	-1256.48	 1303.12
     70.4810	 1522.00	 1634.50	-1401.44	 1302.51
     70.5070	 1711.00	 1634.48	-1212.42	 1301.90
     70.5330	 1645.00	 1634.47	-1278.41	 1301.29
     70.5590	 1648.00	 1634.49	-1275.42	 1300.68
     70.5850	 1624.00	 1634.51	-1299.45	 1300.07
     70.6110	 1594.00	 1634.55	-1329.49	 1299.46
     70.6370	 1601.00	 1634.60	-1322.54	 1298.85
     70.6630	 1593.00	 1634.65	-1330.59	 1298.24
     70.6890	 1658.00	 1634.71	-1265.65	 1297.63
     70.7150	 1605.00	 1634.76	-1318.69	 1297.02
     70.7410	 1601.00	 1634.79	-1322.73	 1296.41
     70.7670	 1594.00	 1634.81	-1329.75	 1295.79
     70.7930	 1597.00	 1634.81	-1326.75	 1295.18
     70.8190	 1577.00	 1634.77	-1346.71	 1294.56
     70.8450	 1540.00	 1634.70	-1383.63	 1293.95
     70.8710	 1598.00	 1634.57	-1325.51	 1293.33
     70.8970	 1575.00	 1634.40	-1348.34	 1292.72
     70.9230	 1654.00	 1634.16	-1269.10	 1292.10
     70.9490	 1595.00	 1633.86	-1327.80	 1291.49
     70.9750	 1592.00	 1633.50	-1330.43	 1290.87
     71.0010	 1615.00	 1633.05	-1306.99	 1290.25
     71.0270	 1570.00	 1632.53	-1351.47	 1289.64
     71.0530	 1658.00	 1631.94	-1262.88	 1289.02
     71.0790	 1579.00	 1631.27	-1341.21	 1288.40
     71.1050	 1637.00	 1630.53	-1282.46	 1287.78
     71.1310	 1547.00	 1629.71	-1371.65	 1287.16
     71.1570	 1580.00	 1628.83	-1337.77	 1286.55
     71.1830	 1589.00	 1627.88	-1327.82	 1285.93
     71.2090	 1579.00	 1626.88	-1336.82	 1285.31
     71.2350	 1634.00	 1625.83	-1280.77	 1284.69
     71.2610	 1593.00	 1624.73	-1320.67	 1284.07
     71.2870	 1616.00	 1623.60	-1296.54	 1283.46
     71.3130	 1627.00	 1622.44	-1284.38	 1282.84
     71.3390	 1634.00	 1621.26	-1276.19	 1282.22
     71.3650	 1634.00	 1620.06	-1274.99	 1281.60
     71.3910	 1562.00	 1618.84	-1345.78	 1280.98
     71.4170	 1567.00	 1617.63	-1339.57	 1280.36
     71.4430	 1599.00	 1616.41	-1306.35	 1279.75
     71.4690	 1588.00	 1615.21	-1316.14	 1279.13
     71.4950	 1567.00	 1614.01	-1335.94	 1278.51
     71.5210	 1569.00	 1612.82	-1332.76	 1277.89
     71.5470	 1575.00	 1611.65	-1325.59	 1277.27
     71.5730	 1537.00	 1610.50	-1362.44	 1276.66
     71.5990	 1541.00	 1609.37	-1357.31	 1276.04
     71.6250	 1564.00	 1608.26	-1333.20	 1275.42
     71.6510	 1584.00	 1607.17	-1312.11	 1274.81
     71.6770	 1570.00	 1606.02	-1324.96	 1274.19
     71.7030	 1546.00	 1604.98	-1347.92	 1273.58
     71.7290	 1531.00	 1603.97	-1361.91	 1272.96
     71.7550	 1532.00	 1602.98	-1359.92	 1272.35
     71.7810	 1552.00	 1601.97	-1338.91	 1271.73
     71.8070	 1565.00	 1601.03	-1324.97	 1271.12
     71.8330	 1581.00	 1600.11	-1308.05	 1270.51
     71.8590	 1564.00	 1599.22	-1324.16	 1269.89
     71.8850	 1561.00	 1598.35	-1326.29	 1269.28
     71.9110	 1607.00	 1597.50	-1279.44	 1268.67
     71.9370	 1615.00	 1596.68	-1270.62	 1268.06
     71.9630	 1567.00	 1595.88	-1317.81	 1267.45
     71.9890	 1584.00	 1595.09	-1300.03	 1266.84
     72.0150	 1613.00	 1594.33	-1270.27	 1266.23
     72.0410	 1535.00	 1593.59	-1347.53	 1265.62
     72.0670	 1490.00	 1592.87	-1391.81	 1265.01
     72.0930	 1484.00	 1592.17	-1397.10	 1264.40
     72.1190	 1538.00	 1591.48	-1342.42	 1263.80
     72.1450	 1542.00	 1590.82	-1337.76	 1263.19
     72.1710	 1556.00	 1590.17	-1323.11	 1262.59
     72.1970	 1565.00	 1589.54	-1313.48	 1261.98
     72.2230	 1548.00	 1588.93	-1329.87	 1261.38
     72.2490	 1549.00	 1588.33	-1328.27	 1260.78
     72.2750	 1558.00	 1587.76	-1318.70	 1260.18
     72.3010	 1504.00	 1587.20	-1372.14	 1259.58
     72.3270	 1539.00	 1586.65	-1336.59	 1258.98
     72.3530	 1598.00	 1586.13	-1277.07	 1258.38
     72.3790	 1600.00	 1585.62	-1274.56	 1257.78
     72.4050	 1558.00	 1585.13	-1316.07	 1257.18
     72.4310	 1534.00	 1584.66	-1339.59	 1256.59
     72.4570	 1571.00	 1584.20	-1302.14	 1255.99
     72.4830	 1556.00	 1583.76	-1316.70	 1255.40
     72.5090	 1542.00	 1583.34	-1330.28	 1254.81
     72.5350	 1569.00	 1582.94	-1302.88	 1254.22
     72.5610	 1565.00	 1582.56	-1306.50	 1253.63
     72.5870	 1558.00	 1582.19	-1313.13	 1253.04
     72.6130	 1561.00	 1581.85	-1309.79	 1252.45
     72.6390	 1572.00	 1581.53	-1298.47	 1251.86
     72.6650	 1524.00	 1581.22	-1346.16	 1251.28
     72.6910	 1577.00	 1580.94	-1292.88	 1250.69
     72.7170	 1570.00	 1580.68	-1299.62	 1250.11
     72.7430	 1570.00	 1580.45	-1299.38	 1249.53
     72.7690	 1626.00	 1580.23	-1243.17	 1248.95
     72.7950	 1637.00	 1580.04	-1231.98	 1248.37
     72.8210	 1605.00	 1579.88	-1263.82	 1247.79
     72.8470	 1666.00	 1579.74	-1202.68	 1247.21
     72.8730	 1683.00	 1579.64	-1185.57	 1246.64
     72.8990	 1601.00	 1579.55	-1267.49	 1246.06
     72.9250	 1555.00	 1579.50	-1313.44	 1245.49
     72.9510	 1645.00	 1579.48	-1223.42	 1244.92
     72.9770	 1588.00	 1579.50	-1280.43	 1244.35
     73.0030	 1547.00	 1579.54	-1321.48	 1243.78
     73.0290	 1599.00	 1579.62	-1269.56	 1243.21
     73.0550	 1587.00	 1579.74	-1281.68	 1242.65
     73.0810	 1550.00	 1579.90	-1318.84	 1242.08
     73.1070	 1637.00	 1580.10	-1232.04	 1241.52
     73.1330	 1596.00	 1580.34	-1273.28	 1240.96
     73.1590	 1673.00	 1580.62	-1196.56	 1240.40
     73.1850	 1646.00	 1580.95	-1223.89	 1239.84
     73.2110	 1588.00	 1581.33	-1282.27	 1239.29
     73.2370	 1527.00	 1581.76	-1343.70	 1238.73
     73.2630	 1656.00	 1582.24	-1215.18	 1238.18
     73.2890	 1556.00	 1582.77	-1315.71	 1237.63
     73.3150	 1607.00	 1583.36	-1265.30	 1237.08
     73.3410	 1586.00	 1584.00	-1286.94	 1236.53
     73.3670	 1606.00	 1584.71	-1267.65	 1235.98
     73.3930	 1644.00	 1585.47	-1230.41	 1235.43
     73.4190	 1642.00	 1586.29	-1233.23	 1234.89
     73.4450	 1694.00	 1587.18	-1182.12	 1234.35
     73.4710	 1645.00	 1588.13	-1232.06	 1233.81
     73.4970	 1679.00	 1589.13	-1199.07	 1233.27
     73.5230	 1676.00	 1590.20	-1203.14	 1232.73
     73.5490	 1600.00	 1591.32	-1280.26	 1232.19
     73.5750	 1615.00	 1592.50	-1266.44	 1231.66
     73.6010	 1605.00	 1593.73	-1277.67	 1231.13
     73.6270	 1651.00	 1595.00	-1232.94	 1230.60
     73.6530	 1656.00	 1596.32	-1229.26	 1230.07
     73.6790	 1678.00	 1597.66	-1208.60	 1229.54
     73.7050	 1635.00	 1599.03	-1252.97	 1229.01
     73.7310	 1665.00	 1600.40	-1224.34	 1228.49
     73.7570	 1623.00	 1601.78	-1267.72	 1227.96
     73.7830	 1586.00	 1603.14	-1306.08	 1227.44
     73.8090	 1568.00	 1604.47	-1325.41	 1226.92
     73.8350	 1571.00	 1605.75	-1323.69	 1226.40
     73.8610	 1678.00	 1606.97	-1217.91	 1225.89
     73.8870	 1670.00	 1608.12	-1227.06	 1225.37
     73.9130	 1681.00	 1609.17	-1217.11	 1224.86
     73.9390	 1614.00	 1610.11	-1285.05	 1224.35
     73.9650	 1615.00	 1610.93	-1284.87	 1223.84
     73.9910	 1652.00	 1611.62	-1248.56	 1223.33
     74.0170	 1626.00	 1612.16	-1275.10	 1222.82
     74.0430	 1687.00	 1612.56	-1214.50	 1222.32
     74.0690	 1687.00	 1612.80	-1214.74	 1221.81
     74.0950	 1628.00	 1612.89	-1273.83	 1221.31
     74.1210	 1680.00	 1612.83	-1221.77	 1220.81
     74.1470	 1698.00	 1612.62	-1203.56	 1220.31
     74.1730	 1680.00	 1612.28	-1221.22	 1219.81
     74.1990	 1692.00	 1611.80	-1208.74	 1219.31
     74.2250	 1699.00	 1611.22	-1201.15	 1218.82
     74.2510	 1710.00	 1610.53	-1189.47	 1218.33
     74.2770	 1705.00	 1609.75	-1193.69	 1217.83
     74.3030	 1682.00	 1608.91	-1215.85	 1217.34
     74.3290	 1640.00	 1608.02	-1256.96	 1216.85
     74.3550	 1701.00	 1607.09	-1195.03	 1216.36
     74.3810	 1712.00	 1606.14	-1183.08	 1215.88
     74.4070	 1677.00	 1605.19	-1217.13	 1215.39
     74.4330	 1709.00	 1604.26	-1184.20	 1214.91
     74.4590	 1693.00	 1603.35	-1199.28	 1214.42
     74.4850	 1653.00	 1602.47	-1238.41	 1213.94
     74.5110	 1673.00	 1601.65	-1217.58	 1213.46
     74.5370	 1714.00	 1600.87	-1175.81	 1212.98
     74.5630	 1714.00	 1600.16	-1175.10	 1212.50
     74.5890	 1681.00	 1599.52	-1207.46	 1212.03
     74.6150	 1629.00	 1598.94	-1258.88	 1211.55
     74.6410	 1620.00	 1598.43	-1267.37	 1211.07
     74.6670	 1632.00	 1597.98	-1254.91	 1210.60
     74.6930	 1646.00	 1597.58	-1240.52	 1210.13
     74.7190	 1631.00	 1597.23	-1255.17	 1209.65
     74.7450	 1576.00	 1596.93	-1309.87	 1209.18
     74.7710	 1628.00	 1596.65	-1257.59	 1208.71
     74.7970	 1648.00	 1596.38	-1237.32	 1208.24
     74.8230	 1658.00	 1596.12	-1227.06	 1207.77
     74.8490	 1690.00	 1595.84	-1194.78	 1207.30
     74.8750	 1627.00	 1595.54	-1257.47	 1206.83
     74.9010	 1642.00	 1595.18	-1242.12	 1206.36
     74.9270	 1640.00	 1594.76	-1243.70	 1205.90
     74.9530	 1631.00	 1594.26	-1252.20	 1205.43
     74.9790	 1615.00	 1593.68	-1267.61	 1204.96
     75.0050	 1622.00	 1592.98	-1259.92	 1204.50
     75.0310	 1598.00	 1592.18	-1283.12	 1204.03
     75.0570	 1637.00	 1591.25	-1243.19	 1203.57
     75.0830	 1595.00	 1590.20	-1284.14	 1203.10
     75.1090	 1598.00	 1589.02	-1279.96	 1202.63
     75.1350	 1603.00	 1587.72	-1273.65	 1202.17
     75.1610	 1612.00	 1586.28	-1263.22	 1201.70
     75.1870	 1649.00	 1584.73	-1224.67	 1201.24
     75.2130	 1601.00	 1583.06	-1271.00	 1200.77
     75.2390	 1556.00	 1581.30	-1314.23	 1200.31
     75.2650	 1589.00	 1579.43	-1279.37	 1199.84
     75.2910	 1574.00	 1577.49	-1292.42	 1199.37
     75.3170	 1618.00	 1575.47	-1246.41	 1198.91
     75.3430	 1595.00	 1573.39	-1267.33	 1198.44
     75.3690	 1563.00	 1571.27	-1297.21	 1197.97
     75.3950	 1562.00	 1569.12	-1296.06	 1197.50
     75.4210	 1574.00	 1566.94	-1281.88	 1197.03
     75.4470	 1606.00	 1564.76	-1247.70	 1196.56
     75.4730	 1622.00	 1562.58	-1229.52	 1196.09
     75.4990	 1608.00	 1560.41	-1241.34	 1195.61
     75.5250	 1538.00	 1558.25	-1309.19	 1195.14
     75.5510	 1489.00	 1556.13	-1356.06	 1194.66
     75.5770	 1558.00	 1554.03	-1284.97	 1194.19
     75.6030	 1550.00	 1551.98	-1290.91	 1193.71
     75.6290	 1515.00	 1549.96	-1323.90	 1193.23
     75.6550	 1506.00	 1548.00	-1330.94	 1192.75
     75.6810	 1521.00	 1546.08	-1314.02	 1192.26
     75.7070	 1615.00	 1544.21	-1218.15	 1191.78
     75.7330	 1581.00	 1542.39	-1250.33	 1191.29
     75.7590	 1581.00	 1540.63	-1248.56	 1190.80
     75.7850	 1519.00	 1538.91	-1308.85	 1190.31
     75.8110	 1542.00	 1537.25	-1284.19	 1189.81
     75.8370	 1515.00	 1535.63	-1309.57	 1189.31
     75.8630	 1525.00	 1534.07	-1298.01	 1188.82
     75.8890	 1533.00	 1532.55	-1288.49	 1188.31
     75.9150	 1530.00	 1531.08	-1290.02	 1187.81
     75.9410	 1537.00	 1529.65	-1281.59	 1187.30
     75.9670	 1612.00	 1528.27	-1205.21	 1186.79
     75.9930	 1606.00	 1526.93	-1209.87	 1186.27
     76.0190	 1553.00	 1525.62	-1261.56	 1185.76
     76.0450	 1524.00	 1524.36	-1289.30	 1185.23
     76.0710	 1524.00	 1523.13	-1288.07	 1184.71
     76.0970	 1542.00	 1521.93	-1268.87	 1184.18
     76.1230	 1529.00	 1520.77	-1280.70	 1183.65
     76.1490	 1541.00	 1519.63	-1267.57	 1183.11
     76.1750	 1469.00	 1518.53	-1338.47	 1182.57
     76.2010	 1518.00	 1517.45	-1288.39	 1182.02
     76.2270	 1538.00	 1516.40	-1267.34	 1181.47
     76.2530	 1507.00	 1515.37	-1297.31	 1180.91
     76.2790	 1467.00	 1514.37	-1336.31	 1180.35
     76.3050	 1538.00	 1513.39	-1264.32	 1179.79
     76.3310	 1466.00	 1512.42	-1335.36	 1179.22
     76.3570	 1507.00	 1511.48	-1293.42	 1178.64
     76.3830	 1530.00	 1510.56	-1269.50	 1178.06
     76.4090	 1571.00	 1509.65	-1227.59	 1177.47
     76.4350	 1545.00	 1508.76	-1252.70	 1176.87
     76.4610	 1509.00	 1507.89	-1287.82	 1176.27
     76.4870	 1481.00	 1507.02	-1314.96	 1175.67
     76.5130	 1493.00	 1506.18	-1302.11	 1175.05
     76.5390	 1456.00	 1505.34	-1338.28	 1174.43
     76.5650	 1480.00	 1504.52	-1313.46	 1173.81
     76.5910	 1489.00	 1503.71	-1303.64	 1173.17
     76.6170	 1483.00	 1502.90	-1308.84	 1172.53
     76.6430	 1469.00	 1502.11	-1322.05	 1171.88
     76.6690	 1443.00	 1501.33	-1347.27	 1171.22
     76.6950	 1475.00	 1500.56	-1314.50	 1170.56
     76.7210	 1546.00	 1499.79	-1242.73	 1169.88
     76.7470	 1514.00	 1499.03	-1273.97	 1169.20
     76.7730	 1469.00	 1498.28	-1318.22	 1168.51
     76.7990	 1458.00	 1497.54	-1328.48	 1167.81
     76.8250	 1463.00	 1496.80	-1322.74	 1167.10
     76.8510	 1467.00	 1496.07	-1318.01	 1166.38
     76.8770	 1479.00	 1495.34	-1305.28	 1165.65
     76.9030	 1507.00	 1494.62	-1276.56	 1164.91
     76.9290	 1517.00	 1493.91	-1265.84	 1164.16
     76.9550	 1478.00	 1493.20	-1304.13	 1163.40
     76.9810	 1481.00	 1492.49	-1300.43	 1162.63
     77.0070	 1469.00	 1491.79	-1311.73	 1161.85
     77.0330	 1470.00	 1491.09	-1310.03	 1161.06
     77.0590	 1469.00	 1490.40	-1310.34	 1160.25
     77.0850	 1490.00	 1489.71	-1288.65	 1159.44
     77.1110	 1504.00	 1489.03	-1273.96	 1158.61
     77.1370	 1468.00	 1488.35	-1309.28	 1157.77
     77.1630	 1451.00	 1487.67	-1325.61	 1156.92
     77.1890	 1438.00	 1487.00	-1337.94	 1156.05
     77.2150	 1516.00	 1486.33	-1259.27	 1155.17
     77.2410	 1512.00	 1485.67	-1262.60	 1154.28
     77.2670	 1444.00	 1485.01	-1329.95	 1153.37
     77.2930	 1440.00	 1484.35	-1333.29	 1152.45
     77.3190	 1412.00	 1483.71	-1360.64	 1151.51
     77.3450	 1453.00	 1483.06	-1319.00	 1150.56
     77.3710	 1478.00	 1482.42	-1293.36	 1149.60
     77.3970	 1463.00	 1481.79	-1307.73	 1148.62
     77.4230	 1431.00	 1481.17	-1339.10	 1147.62
     77.4490	 1416.00	 1480.55	-1353.48	 1146.61
     77.4750	 1467.00	 1479.94	-1301.87	 1145.58
     77.5010	 1453.00	 1479.33	-1315.27	 1144.53
     77.5270	 1425.00	 1478.74	-1342.68	 1143.47
     77.5530	 1430.00	 1478.15	-1337.09	 1142.39
     77.5790	 1452.00	 1477.58	-1314.52	 1141.29
     77.6050	 1472.00	 1477.01	-1293.95	 1140.17
     77.6310	 1463.00	 1476.46	-1302.40	 1139.03
     77.6570	 1471.00	 1475.66	-1293.60	 1137.88
     77.6830	 1546.00	 1475.13	-1218.07	 1136.70
     77.7090	 1407.00	 1474.62	-1356.56	 1135.51
     77.7350	 1412.00	 1474.13	-1351.07	 1134.29
     77.7610	 1458.00	 1473.53	-1304.46	 1133.06
     77.7870	 1449.00	 1473.07	-1313.01	 1131.80
     77.8130	 1414.00	 1472.64	-1347.57	 1130.52
     77.8390	 1443.00	 1472.22	-1318.16	 1129.22
     77.8650	 1402.00	 1471.84	-1358.78	 1127.90
     77.8910	 1430.00	 1471.48	-1330.41	 1126.56
     77.9170	 1437.00	 1471.14	-1323.08	 1125.19
     77.9430	 1463.00	 1470.84	-1296.78	 1123.80
     77.9690	 1457.00	 1470.57	-1302.51	 1122.38
     77.9950	 1508.00	 1470.33	-1251.27	 1120.94
     78.0210	 1470.00	 1470.14	-1289.07	 1119.48
     78.0470	 1427.00	 1469.98	-1331.92	 1117.99
     78.0730	 1495.00	 1469.86	-1263.80	 1116.47
     78.0990	 1472.00	 1469.79	-1286.73	 1114.93
     78.1250	 1458.00	 1469.77	-1300.71	 1113.36
     78.1510	 1491.00	 1469.79	-1267.73	 1111.76
     78.1770	 1466.00	 1469.87	-1292.81	 1110.14
     78.2030	 1465.00	 1470.01	-1293.95	 1108.49
     78.2290	 1410.00	 1470.20	-1349.14	 1106.80
     78.2550	 1504.00	 1470.46	-1255.40	 1105.09
     78.2810	 1455.00	 1470.77	-1304.71	 1103.35
     78.3070	 1587.00	 1471.16	-1173.09	 1101.58
     78.3330	 1492.00	 1471.60	-1268.54	 1099.78
     78.3590	 1487.00	 1472.12	-1274.05	 1097.95
     78.3850	 1415.00	 1472.70	-1346.63	 1096.08
     78.4110	 1464.00	 1473.34	-1298.28	 1094.18
     78.4370	 1485.00	 1474.05	-1277.99	 1092.25
     78.4630	 1482.00	 1474.82	-1281.76	 1090.29
     78.4890	 1442.00	 1475.65	-1322.59	 1088.29
     78.5150	 1500.00	 1476.52	-1265.46	 1086.26
     78.5410	 1465.00	 1477.44	-1301.38	 1084.19
     78.5670	 1462.00	 1478.39	-1305.33	 1082.09
     78.5930	 1427.00	 1479.36	-1341.30	 1079.94
     78.6190	 1469.00	 1480.34	-1300.28	 1077.77
     78.6450	 1505.00	 1481.30	-1265.24	 1075.55
     78.6710	 1529.00	 1482.23	-1242.17	 1073.30
     78.6970	 1433.00	 1483.10	-1339.04	 1071.00
     78.7230	 1462.00	 1483.90	-1310.83	 1068.67
     78.7490	 1452.00	 1484.58	-1321.52	 1066.30
     78.7750	 1463.00	 1485.12	-1311.06	 1063.88
     78.8010	 1469.00	 1485.50	-1305.44	 1061.43
     78.8270	 1446.00	 1485.67	-1328.61	 1058.93
     78.8530	 1475.00	 1485.61	-1299.55	 1056.39
     78.8790	 1470.00	 1485.28	-1304.22	 1053.81
     78.9050	 1433.00	 1484.66	-1340.60	 1051.18
     78.9310	 1460.00	 1483.72	-1312.66	 1048.50
     78.9570	 1460.00	 1482.43	-1311.37	 1045.78
     78.9830	 1463.00	 1480.77	-1306.71	 1043.02
     79.0090	 1458.00	 1478.73	-1309.67	 1040.21
     79.0350	 1450.00	 1476.30	-1315.23	 1037.35
     79.0610	 1448.00	 1473.46	-1314.40	 1034.44
     79.0870	 1423.00	 1470.24	-1336.17	 1031.48
     79.1130	 1491.00	 1466.61	-1264.55	 1028.47
     79.1390	 1435.00	 1462.60	-1316.54	 1025.41
     79.1650	 1397.00	 1458.22	-1350.16	 1022.30
     79.1910	 1425.00	 1453.49	-1317.43	 1019.14
     79.2170	 1402.00	 1448.43	-1335.36	 1015.92
     79.2430	 1407.00	 1443.05	-1324.99	 1012.65
     79.2690	 1413.00	 1437.39	-1313.33	 1009.32
     79.2950	 1441.00	 1431.48	-1279.42	 1005.94
     79.3210	 1456.00	 1425.34	-1258.28	 1002.51
     79.3470	 1406.00	 1419.00	-1301.93	  999.01
     79.3730	 1389.00	 1412.48	-1312.42	  995.46
     79.3990	 1399.00	 1405.81	-1295.75	  991.85
     79.4250	 1388.00	 1399.03	-1299.97	  988.18
     79.4510	 1414.00	 1392.14	-1267.08	  984.44
     79.4770	 1435.00	 1385.18	-1239.12	  980.65
     79.5030	 1379.00	 1378.16	-1288.10	  976.79
     79.5290	 1326.00	 1371.10	-1334.04	  972.88
     79.5550	 1372.00	 1364.01	-1280.95	  968.89
     79.5810	 1362.00	 1356.92	-1283.85	  964.84
     79.6070	 1374.00	 1349.81	-1264.75	  960.73
     79.6330	 1407.00	 1342.72	-1224.66	  956.55
     79.6590	 1387.00	 1335.64	-1237.58	  952.30
     79.6850	 1369.00	 1328.57	-1248.51	  947.98
     79.7110	 1369.00	 1321.53	-1241.47	  943.59
     79.7370	 1360.00	 1314.51	-1243.45	  939.13
     79.7630	 1348.00	 1307.51	-1248.45	  934.60
     79.7890	 1358.00	 1300.53	-1231.47	  929.99
     79.8150	 1353.00	 1293.58	-1229.51	  925.31
     79.8410	 1392.00	 1286.64	-1183.58	  920.56
     79.8670	 1399.00	 1279.72	-1169.66	  915.73
