 AH11    CELL:    8.39467   8.39467   8.39467   90.0000   90.0000   90.0000   SPGR: F d -3 m               TEMP:      0.00
  1   2874     1.54056     1.54439     0.00000     0.00000     0.00000    0
   94    0    0
 2Theta	Yobs	Ycal	Yobs-Ycal	Backg	Bragg	Posr	(hkl)	K
      5.1690	 4544.00	 4568.74	-1327.31	 4255.73	     18.2896	       0	(  1  1  1)	  0  1
      5.1950	 4535.00	 4553.72	-1321.28	 4240.70	     18.3355	       0	(  1  1  1)	  0  2
      5.2210	 4508.00	 4538.75	-1333.32	 4225.73	     30.0846	       0	(  2  2  0)	  0  1
      5.2470	 4492.00	 4523.85	-1334.41	 4210.82	     30.1612	       0	(  2  2  0)	  0  2
      5.2730	 4496.00	 4509.01	-1315.57	 4195.98	     35.4356	       0	(  3  1  1)	  0  1
      5.2990	 4491.00	 4494.23	-1305.79	 4181.19	     35.5265	       0	(  3  1  1)	  0  2
      5.3250	 4450.00	 4479.51	-1332.07	 4166.47	     37.0672	       0	(  2  2  2)	  0  1
      5.3510	 4518.00	 4464.85	-1249.41	 4151.81	     37.1627	       0	(  2  2  2)	  0  2
      5.3770	 4381.00	 4450.25	-1371.81	 4137.21	     43.0657	       0	(  4  0  0)	  0  1
      5.4030	 4371.00	 4435.71	-1367.27	 4122.66	     43.1780	       0	(  4  0  0)	  0  2
      5.4290	 4428.00	 4421.23	-1295.80	 4108.18	     47.1521	       0	(  3  3  1)	  0  1
      5.4550	 4449.00	 4406.82	-1260.38	 4093.76	     47.2764	       0	(  3  3  1)	  0  2
      5.4810	 4453.00	 4392.46	-1242.02	 4079.40	     53.4262	       0	(  4  2  2)	  0  1
      5.5070	 4321.00	 4378.16	-1359.72	 4065.10	     53.5695	       0	(  4  2  2)	  0  2
      5.5330	 4249.00	 4363.92	-1417.49	 4050.85	     56.9521	       0	(  3  3  3)	  0  1
      5.5590	 4415.00	 4349.74	-1237.31	 4036.67	     56.9521	       0	(  5  1  1)	  0  1
      5.5850	 4342.00	 4335.62	-1296.19	 4022.55	     57.1066	       0	(  3  3  3)	  0  2
      5.6110	 4361.00	 4321.56	-1263.13	 4008.48	     57.1066	       0	(  5  1  1)	  0  2
      5.6370	 4382.00	 4307.56	-1228.13	 3994.48	     62.5391	       0	(  4  4  0)	  0  1
      5.6630	 4286.00	 4293.62	-1310.18	 3980.53	     62.7121	       0	(  4  4  0)	  0  2
      5.6890	 4327.00	 4279.74	-1255.30	 3966.65	     65.7559	       0	(  5  3  1)	  0  1
      5.7150	 4248.00	 4265.91	-1320.48	 3952.82	     65.9400	       0	(  5  3  1)	  0  2
      5.7410	 4235.00	 4252.15	-1319.71	 3939.05	     66.8097	       0	(  4  4  2)	  0  1
      5.7670	 4244.00	 4238.44	-1297.00	 3925.34	     66.9976	       0	(  4  4  2)	  0  2
      5.7930	 4348.00	 4224.79	-1179.36	 3911.69	     70.9478	       0	(  6  2  0)	  0  1
      5.8190	 4252.00	 4211.20	-1261.77	 3898.09	     71.1508	       0	(  6  2  0)	  0  2
      5.8450	 4266.00	 4197.67	-1234.23	 3884.56	     73.9837	       0	(  5  3  3)	  0  1
      5.8710	 4134.00	 4184.19	-1352.76	 3871.08	     74.1983	       0	(  5  3  3)	  0  2
      5.8970	 4204.00	 4170.78	-1269.34	 3857.66	     74.9850	       0	(  6  2  2)	  0  1
      5.9230	 4192.00	 4157.42	-1267.99	 3844.30	     75.2036	       0	(  6  2  2)	  0  2
      5.9490	 4247.00	 4144.12	-1199.68	 3830.99	     78.9471	       0	(  4  4  4)	  0  1
      5.9750	 4253.00	 4130.88	-1180.44	 3817.75	     79.1818	       0	(  4  4  4)	  0  2
      6.0010	 4176.00	 4117.69	-1244.26	 3804.56	     81.8829	       0	(  7  1  1)	  0  1
      6.0270	 4153.00	 4104.57	-1254.13	 3791.43	     81.8829	       0	(  5  5  1)	  0  1
      6.0530	 4093.00	 4091.50	-1301.06	 3778.35	     82.1301	       0	(  5  5  1)	  0  2
      6.0790	 4095.00	 4078.48	-1286.05	 3765.34	     82.1301	       0	(  7  1  1)	  0  2
      6.1050	 4043.00	 4065.53	-1325.09	 3752.38	     86.7323	       0	(  6  4  2)	  0  1
      6.1310	 4060.00	 4052.63	-1295.20	 3739.48	     87.0016	       0	(  6  4  2)	  0  2
      6.1570	 4060.00	 4039.79	-1282.36	 3726.63	     89.6285	       0	(  5  5  3)	  0  1
      6.1830	 4059.00	 4027.01	-1270.57	 3713.84	     89.6285	       0	(  7  3  1)	  0  1
      6.2090	 4027.00	 4014.28	-1289.85	 3701.11	     89.9118	       0	(  5  5  3)	  0  2
      6.2350	 3955.00	 4001.61	-1349.18	 3688.44	     89.9118	       0	(  7  3  1)	  0  2
      6.2610	 4026.00	 3989.00	-1265.56	 3675.82	     94.4571	       0	(  8  0  0)	  0  1
      6.2870	 4028.00	 3976.44	-1251.01	 3663.26	     94.7654	       0	(  8  0  0)	  0  2
      6.3130	 3965.00	 3963.94	-1301.51	 3650.76	     97.3674	       0	(  7  3  3)	  0  1
      6.3390	 4008.00	 3951.50	-1246.06	 3638.31	     97.6918	       0	(  7  3  3)	  0  2
      6.3650	 4043.00	 3939.11	-1198.68	 3625.92	     98.3414	       0	(  6  4  4)	  0  1
      6.3910	 4013.00	 3926.78	-1216.35	 3613.59	     98.6714	       0	(  6  4  4)	  0  2
      6.4170	 4005.00	 3914.51	-1212.08	 3601.31	    102.2647	       0	(  6  6  0)	  0  1
      6.4430	 3977.00	 3902.29	-1227.86	 3589.09	    102.2647	       0	(  8  2  2)	  0  1
      6.4690	 3954.00	 3890.14	-1238.70	 3576.93	    102.6186	       0	(  6  6  0)	  0  2
      6.4950	 3969.00	 3878.03	-1211.60	 3564.82	    102.6186	       0	(  8  2  2)	  0  2
      6.5210	 3902.00	 3865.98	-1266.55	 3552.76	    105.2449	       0	(  5  5  5)	  0  1
      6.5470	 3868.00	 3853.99	-1288.56	 3540.77	    105.2449	       0	(  7  5  1)	  0  1
      6.5730	 3854.00	 3842.05	-1290.62	 3528.83	    105.6184	       0	(  5  5  5)	  0  2
      6.5990	 3874.00	 3830.18	-1258.74	 3516.94	    105.6184	       0	(  7  5  1)	  0  2
      6.6250	 3885.00	 3818.35	-1235.92	 3505.12	    106.2474	       0	(  6  6  2)	  0  1
      6.6510	 3852.00	 3806.59	-1257.15	 3493.34	    106.6278	       0	(  6  6  2)	  0  2
      6.6770	 3874.00	 3794.88	-1223.44	 3481.63	    110.3126	       0	(  8  4  0)	  0  1
      6.7030	 3839.00	 3783.22	-1246.78	 3469.97	    110.7227	       0	(  8  4  0)	  0  2
      6.7290	 3689.00	 3771.62	-1385.18	 3458.36	    113.4320	       0	(  7  5  3)	  0  1
      6.7550	 3676.00	 3760.08	-1386.64	 3446.82	    113.4320	       0	(  9  1  1)	  0  1
      6.7810	 3755.00	 3748.59	-1296.15	 3435.32	    113.8669	       0	(  7  5  3)	  0  2
      6.8070	 3774.00	 3737.16	-1265.72	 3423.89	    113.8669	       0	(  9  1  1)	  0  2
      6.8330	 3862.00	 3725.78	-1166.34	 3412.51	    114.4878	       0	(  8  4  2)	  0  1
      6.8590	 3745.00	 3714.46	-1272.02	 3401.18	    114.9317	       0	(  8  4  2)	  0  2
      6.8850	 3720.00	 3703.19	-1285.76	 3389.91	    118.8067	       0	(  6  6  4)	  0  1
      6.9110	 3738.00	 3691.98	-1256.55	 3378.70	    119.2899	       0	(  6  6  4)	  0  2
      6.9370	 3707.00	 3680.83	-1276.39	 3367.54	    122.1660	       0	(  9  3  1)	  0  1
      6.9630	 3608.00	 3669.73	-1364.29	 3356.43	    122.6835	       0	(  9  3  1)	  0  2
      6.9890	 3704.00	 3658.69	-1257.25	 3345.39	    128.0661	       0	(  8  4  4)	  0  1
      7.0150	 3678.00	 3647.70	-1272.26	 3334.39	    128.6539	       0	(  8  4  4)	  0  2
      7.0410	 3631.00	 3636.77	-1308.33	 3323.46	    131.8427	       0	(  7  5  5)	  0  1
      7.0670	 3556.00	 3625.89	-1372.45	 3312.57	    131.8427	       0	(  7  7  1)	  0  1
      7.0930	 3674.00	 3615.07	-1243.63	 3301.75	    131.8427	       0	(  9  3  3)	  0  1
      7.1190	 3541.00	 3604.30	-1365.87	 3290.98	    132.4839	       0	(  7  5  5)	  0  2
      7.1450	 3470.00	 3593.59	-1426.16	 3280.26	    132.4839	       0	(  7  7  1)	  0  2
      7.1710	 3531.00	 3582.93	-1354.50	 3269.60	    132.4839	       0	(  9  3  3)	  0  2
      7.1970	 3407.00	 3572.33	-1467.90	 3259.00	    138.7018	       0	(  8  6  2)	  0  1
      7.2230	 3550.00	 3561.79	-1314.35	 3248.44	    138.7018	       0	( 10  2  0)	  0  1
      7.2490	 3447.00	 3551.30	-1406.86	 3237.95	    139.4641	       0	(  8  6  2)	  0  2
      7.2750	 3396.00	 3540.86	-1447.43	 3227.51	    139.4641	       0	( 10  2  0)	  0  2
      7.3010	 3544.00	 3530.48	-1289.05	 3217.12	    143.3025	       0	(  7  7  3)	  0  1
      7.3270	 3378.00	 3520.16	-1444.72	 3206.79	    143.3025	       0	(  9  5  1)	  0  1
      7.3530	 3478.00	 3509.89	-1334.45	 3196.52	    144.1710	       0	(  7  7  3)	  0  2
      7.3790	 3492.00	 3499.67	-1310.24	 3186.30	    144.1710	       0	(  9  5  1)	  0  2
      7.4050	 3424.00	 3489.51	-1368.08	 3176.14	    144.9490	       0	(  6  6  6)	  0  1
      7.4310	 3392.00	 3479.41	-1389.97	 3166.03	    144.9490	       0	( 10  2  2)	  0  1
      7.4570	 3504.00	 3469.36	-1267.93	 3155.97	    145.8622	       0	(  6  6  6)	  0  2
      7.4830	 3397.00	 3459.36	-1364.93	 3145.97	    145.8622	       0	( 10  2  2)	  0  2
      7.5090	 3405.00	 3449.43	-1346.99	 3136.03	    159.4745	       0	(  9  5  3)	  0  1
      7.5350	 3480.00	 3439.54	-1262.11	 3126.14	    161.1118	       0	(  9  5  3)	  0  2
      7.5610	 3445.00	 3429.71	-1287.28	 3116.30	    162.4313	       0	(  8  6  4)	  0  1
      7.5870	 3396.00	 3419.94	-1326.50	 3106.52	    164.3814	       0	(  8  6  4)	  0  2
      7.6130	 3391.00	 3410.22	-1321.78	 3096.80
      7.6390	 3250.00	 3400.55	-1453.12	 3087.12
      7.6650	 3328.00	 3390.94	-1365.50	 3077.51
      7.6910	 3308.00	 3381.38	-1375.95	 3067.95
      7.7170	 3434.00	 3371.88	-1240.45	 3058.44
      7.7430	 3423.00	 3362.44	-1242.00	 3048.99
      7.7690	 3309.00	 3353.05	-1346.61	 3039.59
      7.7950	 3337.00	 3343.71	-1309.27	 3030.25
      7.8210	 3223.00	 3334.43	-1413.99	 3020.96
      7.8470	 3259.00	 3325.20	-1368.76	 3011.73
      7.8730	 3225.00	 3316.03	-1393.59	 3002.55
      7.8990	 3211.00	 3306.91	-1398.47	 2993.43
      7.9250	 3217.00	 3297.84	-1383.41	 2984.36
      7.9510	 3274.00	 3288.84	-1317.40	 2975.34
      7.9770	 3248.00	 3279.88	-1334.45	 2966.38
      8.0030	 3330.00	 3270.98	-1243.54	 2957.48
      8.0290	 3220.00	 3262.14	-1344.70	 2948.63
      8.0550	 3183.00	 3253.35	-1372.91	 2939.83
      8.0810	 3133.00	 3244.61	-1414.17	 2931.09
      8.1070	 3136.00	 3235.93	-1402.49	 2922.40
      8.1330	 3147.00	 3227.30	-1382.86	 2913.77
      8.1590	 3173.00	 3218.73	-1348.29	 2905.19
      8.1850	 3091.00	 3210.21	-1421.77	 2896.66
      8.2110	 3078.00	 3201.74	-1426.31	 2888.19
      8.2370	 3070.00	 3193.33	-1425.90	 2879.78
      8.2630	 3097.00	 3184.98	-1390.54	 2871.41
      8.2890	 3126.00	 3176.67	-1353.24	 2863.11
      8.3150	 3110.00	 3168.43	-1360.99	 2854.85
      8.3410	 3111.00	 3160.23	-1351.80	 2846.65
      8.3670	 3108.00	 3152.10	-1346.66	 2838.51
      8.3930	 3159.00	 3144.01	-1287.58	 2830.42
      8.4190	 3070.00	 3135.98	-1368.55	 2822.38
      8.4450	 3047.00	 3128.00	-1383.57	 2814.40
      8.4710	 3017.00	 3120.08	-1405.65	 2806.47
      8.4970	 3096.00	 3112.22	-1318.78	 2798.60
      8.5230	 3116.00	 3104.40	-1290.96	 2790.78
      8.5490	 3093.00	 3096.67	-1306.23	 2783.01
      8.5750	 3094.00	 3088.96	-1297.52	 2775.30
      8.6010	 3000.00	 3081.31	-1383.87	 2767.64
      8.6270	 2931.00	 3073.71	-1445.27	 2760.03
      8.6530	 2986.00	 3066.18	-1382.74	 2752.48
      8.6790	 3015.00	 3058.69	-1346.25	 2744.99
      8.7050	 2999.00	 3051.25	-1354.82	 2737.54
      8.7310	 3032.00	 3043.87	-1314.43	 2730.16
      8.7570	 3037.00	 3036.54	-1302.10	 2722.82
      8.7830	 3051.00	 3029.26	-1280.83	 2715.54
      8.8090	 3015.00	 3022.04	-1309.61	 2708.31
      8.8350	 2987.00	 3014.88	-1330.44	 2701.14
      8.8610	 3041.00	 3007.76	-1269.33	 2694.02
      8.8870	 2996.00	 3000.70	-1307.27	 2686.95
      8.9130	 3012.00	 2993.70	-1284.26	 2679.94
      8.9390	 2993.00	 2986.74	-1296.31	 2672.97
      8.9650	 2924.00	 2979.84	-1358.41	 2666.07
      8.9910	 2975.00	 2973.00	-1300.56	 2659.21
      9.0170	 3005.00	 2966.20	-1263.77	 2652.41
      9.0430	 2968.00	 2959.46	-1294.03	 2645.67
      9.0690	 2910.00	 2952.78	-1345.34	 2638.98
      9.0950	 2887.00	 2946.15	-1361.71	 2632.34
      9.1210	 2870.00	 2939.57	-1372.13	 2625.75
      9.1470	 2928.00	 2933.04	-1307.61	 2619.22
      9.1730	 2943.00	 2926.57	-1286.13	 2612.74
      9.1990	 2902.00	 2920.15	-1320.71	 2606.31
      9.2250	 2975.00	 2913.78	-1241.35	 2599.93
      9.2510	 2993.00	 2907.47	-1217.03	 2593.61
      9.2770	 2905.00	 2901.21	-1298.77	 2587.35
      9.3030	 2862.00	 2895.00	-1335.57	 2581.13
      9.3290	 2921.00	 2888.85	-1270.41	 2574.97
      9.3550	 2946.00	 2882.75	-1239.31	 2568.86
      9.3810	 2906.00	 2876.70	-1273.26	 2562.80
      9.4070	 2797.00	 2870.70	-1376.26	 2556.80
      9.4330	 2914.00	 2864.76	-1253.32	 2550.85
      9.4590	 2980.00	 2858.87	-1181.43	 2544.95
      9.4850	 2970.00	 2853.03	-1185.59	 2539.10
      9.5110	 2872.00	 2847.24	-1277.81	 2533.31
      9.5370	 2943.00	 2841.51	-1201.08	 2527.57
      9.5630	 2909.00	 2835.83	-1229.40	 2521.88
      9.5890	 2844.00	 2830.20	-1288.77	 2516.25
      9.6150	 2816.00	 2824.63	-1311.19	 2510.66
      9.6410	 2890.00	 2819.10	-1231.67	 2505.13
      9.6670	 2902.00	 2813.63	-1214.20	 2499.65
      9.6930	 2773.00	 2808.21	-1337.78	 2494.23
      9.7190	 2832.00	 2802.85	-1273.41	 2488.85
      9.7450	 2805.00	 2797.53	-1295.10	 2483.53
      9.7710	 2852.00	 2792.27	-1242.84	 2478.26
      9.7970	 2760.00	 2787.06	-1329.62	 2473.04
      9.8230	 2844.00	 2781.90	-1240.47	 2467.87
      9.8490	 2766.00	 2776.79	-1313.36	 2462.76
      9.8750	 2830.00	 2771.74	-1244.30	 2457.69
      9.9010	 2825.00	 2766.74	-1244.30	 2452.68
      9.9270	 2719.00	 2761.79	-1345.35	 2447.72
      9.9530	 2806.00	 2756.88	-1253.45	 2442.81
      9.9790	 2749.00	 2752.04	-1305.60	 2437.95
     10.0050	 2798.00	 2747.24	-1251.80	 2433.15
     10.0310	 2799.00	 2742.49	-1246.06	 2428.39
     10.0570	 2739.00	 2737.80	-1301.36	 2423.69
     10.0830	 2792.00	 2733.16	-1243.72	 2419.04
     10.1090	 2764.00	 2728.56	-1267.13	 2414.43
     10.1350	 2774.00	 2724.02	-1252.59	 2409.88
     10.1610	 2856.00	 2719.53	-1166.10	 2405.39
     10.1870	 2724.00	 2715.09	-1293.66	 2400.94
     10.2130	 2725.00	 2710.70	-1288.27	 2396.54
     10.2390	 2710.00	 2706.37	-1298.93	 2392.19
     10.2650	 2713.00	 2702.08	-1291.65	 2387.90
     10.2910	 2690.00	 2697.84	-1310.41	 2383.65
     10.3170	 2829.00	 2693.66	-1167.22	 2379.45
     10.3430	 2611.00	 2689.52	-1381.09	 2375.31
     10.3690	 2687.00	 2685.44	-1301.00	 2371.21
     10.3950	 2634.00	 2681.40	-1349.97	 2367.17
     10.4210	 2736.00	 2677.42	-1243.98	 2363.17
     10.4470	 2711.00	 2673.48	-1265.05	 2359.23
     10.4730	 2702.00	 2669.60	-1270.17	 2355.34
     10.4990	 2697.00	 2665.77	-1271.33	 2351.49
     10.5250	 2704.00	 2661.98	-1260.55	 2347.70
     10.5510	 2755.00	 2658.25	-1205.81	 2343.95
     10.5770	 2732.00	 2654.56	-1225.13	 2340.26
     10.6030	 2754.00	 2650.93	-1199.49	 2336.61
     10.6290	 2763.00	 2647.34	-1186.91	 2333.01
     10.6550	 2662.00	 2643.80	-1284.37	 2329.47
     10.6810	 2756.00	 2640.32	-1186.88	 2325.97
     10.7070	 2630.00	 2636.88	-1309.44	 2322.52
     10.7330	 2542.00	 2633.49	-1394.06	 2319.12
     10.7590	 2678.00	 2630.15	-1254.72	 2315.77
     10.7850	 2641.00	 2626.86	-1288.42	 2312.47
     10.8110	 2654.00	 2623.62	-1272.18	 2309.21
     10.8370	 2683.00	 2620.42	-1239.99	 2306.01
     10.8630	 2694.00	 2617.28	-1225.84	 2302.85
     10.8890	 2673.00	 2614.18	-1243.75	 2299.74
     10.9150	 2632.00	 2611.14	-1281.70	 2296.68
     10.9410	 2618.00	 2608.14	-1292.70	 2293.67
     10.9670	 2607.00	 2605.18	-1300.75	 2290.71
     10.9930	 2599.00	 2602.28	-1305.85	 2287.80
     11.0190	 2607.00	 2599.43	-1294.99	 2284.93
     11.0450	 2606.00	 2596.62	-1293.18	 2282.11
     11.0710	 2660.00	 2593.86	-1236.42	 2279.34
     11.0970	 2700.00	 2591.15	-1193.71	 2276.61
     11.1230	 2618.00	 2588.48	-1273.05	 2273.94
     11.1490	 2639.00	 2585.87	-1249.43	 2271.31
     11.1750	 2611.00	 2583.30	-1274.86	 2268.73
     11.2010	 2610.00	 2580.77	-1273.34	 2266.19
     11.2270	 2583.00	 2578.30	-1297.86	 2263.70
     11.2530	 2545.00	 2575.87	-1333.44	 2261.26
     11.2790	 2642.00	 2573.49	-1234.06	 2258.87
     11.3050	 2627.00	 2571.16	-1246.72	 2256.52
     11.3310	 2546.00	 2568.87	-1325.43	 2254.22
     11.3570	 2595.00	 2566.71	-1274.27	 2251.96
     11.3830	 2629.00	 2564.51	-1238.08	 2249.76
     11.4090	 2599.00	 2562.36	-1265.93	 2247.59
     11.4350	 2515.00	 2560.26	-1347.83	 2245.48
     11.4610	 2522.00	 2558.20	-1338.77	 2243.41
     11.4870	 2531.00	 2556.23	-1327.80	 2241.39
     11.5130	 2516.00	 2554.27	-1340.83	 2239.41
     11.5390	 2548.00	 2552.35	-1306.91	 2237.47
     11.5650	 2538.00	 2550.48	-1315.04	 2235.59
     11.5910	 2558.00	 2548.65	-1293.21	 2233.74
     11.6170	 2620.00	 2546.87	-1229.43	 2231.95
     11.6430	 2606.00	 2545.13	-1241.70	 2230.19
     11.6690	 2574.00	 2543.44	-1272.00	 2228.49
     11.6950	 2589.00	 2541.79	-1255.36	 2226.83
     11.7210	 2572.00	 2540.19	-1270.75	 2225.21
     11.7470	 2524.00	 2538.63	-1317.20	 2223.64
     11.7730	 2507.00	 2537.12	-1332.68	 2222.11
     11.7990	 2538.00	 2535.65	-1300.21	 2220.62
     11.8250	 2562.00	 2534.22	-1274.79	 2219.18
     11.8510	 2568.00	 2532.84	-1267.41	 2217.79
     11.8770	 2526.00	 2531.51	-1308.07	 2216.43
     11.9030	 2523.00	 2530.22	-1309.78	 2215.12
     11.9290	 2519.00	 2528.97	-1312.53	 2213.86
     11.9550	 2606.00	 2527.76	-1224.33	 2212.64
     11.9810	 2651.00	 2526.60	-1178.16	 2211.46
     12.0070	 2508.00	 2525.48	-1320.05	 2210.32
     12.0330	 2491.00	 2524.41	-1335.97	 2209.23
     12.0590	 2545.00	 2523.37	-1280.94	 2208.18
     12.0850	 2560.00	 2522.38	-1264.95	 2207.18
     12.1110	 2557.00	 2521.44	-1267.00	 2206.21
     12.1370	 2544.00	 2520.53	-1279.10	 2205.29
     12.1630	 2559.00	 2519.67	-1263.24	 2204.41
     12.1890	 2582.00	 2518.85	-1239.42	 2203.57
     12.2150	 2572.00	 2518.07	-1248.64	 2202.78
     12.2410	 2544.00	 2517.34	-1275.90	 2202.02
     12.2670	 2449.00	 2516.65	-1370.21	 2201.31
     12.2930	 2538.00	 2515.99	-1280.56	 2200.64
     12.3190	 2491.00	 2515.38	-1326.95	 2200.01
     12.3450	 2499.00	 2514.82	-1318.38	 2199.42
     12.3710	 2502.00	 2514.29	-1314.85	 2198.88
     12.3970	 2565.00	 2513.80	-1251.37	 2198.37
     12.4230	 2542.00	 2513.36	-1273.92	 2197.91
     12.4490	 2560.00	 2512.95	-1255.52	 2197.48
     12.4750	 2578.00	 2512.59	-1237.15	 2197.10
     12.5010	 2595.00	 2512.26	-1219.83	 2196.75
     12.5270	 2479.00	 2511.98	-1335.55	 2196.45
     12.5530	 2569.00	 2511.74	-1245.30	 2196.19
     12.5790	 2560.00	 2511.54	-1254.10	 2195.96
     12.6050	 2577.00	 2511.37	-1236.94	 2195.78
     12.6310	 2497.00	 2511.25	-1316.81	 2195.63
     12.6570	 2545.00	 2511.16	-1268.73	 2195.53
     12.6830	 2559.00	 2511.12	-1254.69	 2195.46
     12.7090	 2478.00	 2511.12	-1335.68	 2195.43
     12.7350	 2485.00	 2511.15	-1328.71	 2195.45
     12.7610	 2472.00	 2511.22	-1341.79	 2195.50
     12.7870	 2532.00	 2511.33	-1281.90	 2195.59
     12.8130	 2540.00	 2511.48	-1274.05	 2195.71
     12.8390	 2501.00	 2511.67	-1313.24	 2195.88
     12.8650	 2441.00	 2511.90	-1373.46	 2196.08
     12.8910	 2473.00	 2512.16	-1341.73	 2196.32
     12.9170	 2495.00	 2512.47	-1320.03	 2196.60
     12.9430	 2536.00	 2512.81	-1279.37	 2196.92
     12.9690	 2585.00	 2513.19	-1230.75	 2197.27
     12.9950	 2476.00	 2513.60	-1340.17	 2197.66
     13.0210	 2529.00	 2514.06	-1287.62	 2198.09
     13.0470	 2536.00	 2514.55	-1281.11	 2198.55
     13.0730	 2494.00	 2515.07	-1323.64	 2199.05
     13.0990	 2522.00	 2515.64	-1296.20	 2199.59
     13.1250	 2535.00	 2516.24	-1283.80	 2200.17
     13.1510	 2558.00	 2516.87	-1261.44	 2200.77
     13.1770	 2456.00	 2517.55	-1364.11	 2201.42
     13.2030	 2555.00	 2518.26	-1265.82	 2202.10
     13.2290	 2524.00	 2519.00	-1297.57	 2202.82
     13.2550	 2508.00	 2519.78	-1314.35	 2203.57
     13.2810	 2526.00	 2520.60	-1297.16	 2204.36
     13.3070	 2531.00	 2521.45	-1293.02	 2205.18
     13.3330	 2492.00	 2522.34	-1332.90	 2206.04
     13.3590	 2564.00	 2523.26	-1261.83	 2206.93
     13.3850	 2459.00	 2524.22	-1367.78	 2207.86
     13.4110	 2436.00	 2525.21	-1391.78	 2208.82
     13.4370	 2462.00	 2526.24	-1366.80	 2209.82
     13.4630	 2505.00	 2527.30	-1324.86	 2210.84
     13.4890	 2511.00	 2528.39	-1319.96	 2211.91
     13.5150	 2527.00	 2529.52	-1305.09	 2213.00
     13.5410	 2580.00	 2530.69	-1253.25	 2214.13
     13.5670	 2564.00	 2531.88	-1270.45	 2215.30
     13.5930	 2546.00	 2533.11	-1289.68	 2216.49
     13.6190	 2587.00	 2534.38	-1249.94	 2217.72
     13.6450	 2533.00	 2535.67	-1305.24	 2218.99
     13.6710	 2612.00	 2537.00	-1227.57	 2220.28
     13.6970	 2597.00	 2538.36	-1243.93	 2221.61
     13.7230	 2539.00	 2539.76	-1303.32	 2222.96
     13.7490	 2567.00	 2541.19	-1276.75	 2224.36
     13.7750	 2560.00	 2542.65	-1285.21	 2225.78
     13.8010	 2551.00	 2544.14	-1295.70	 2227.23
     13.8270	 2559.00	 2545.66	-1289.23	 2228.72
     13.8530	 2502.00	 2547.22	-1347.78	 2230.23
     13.8790	 2540.00	 2548.80	-1311.37	 2231.78
     13.9050	 2534.00	 2550.42	-1318.99	 2233.36
     13.9310	 2589.00	 2552.07	-1265.64	 2234.97
     13.9570	 2594.00	 2553.75	-1262.32	 2236.61
     13.9830	 2571.00	 2555.46	-1287.03	 2238.28
     14.0090	 2534.00	 2557.21	-1325.77	 2239.98
     14.0350	 2519.00	 2558.98	-1342.54	 2241.70
     14.0610	 2549.00	 2560.78	-1314.35	 2243.46
     14.0870	 2543.00	 2562.62	-1322.18	 2245.25
     14.1130	 2563.00	 2564.48	-1304.04	 2247.07
     14.1390	 2603.00	 2566.37	-1265.94	 2248.92
     14.1650	 2587.00	 2568.29	-1283.86	 2250.79
     14.1910	 2574.00	 2570.25	-1298.81	 2252.70
     14.2170	 2545.00	 2572.23	-1329.79	 2254.63
     14.2430	 2532.00	 2574.24	-1344.80	 2256.59
     14.2690	 2592.00	 2576.28	-1286.84	 2258.58
     14.2950	 2614.00	 2578.34	-1266.91	 2260.59
     14.3210	 2628.00	 2580.44	-1255.01	 2262.64
     14.3470	 2586.00	 2582.57	-1299.13	 2264.71
     14.3730	 2543.00	 2584.72	-1344.28	 2266.81
     14.3990	 2591.00	 2586.90	-1298.47	 2268.94
     14.4250	 2601.00	 2589.11	-1290.67	 2271.09
     14.4510	 2648.00	 2591.35	-1245.91	 2273.27
     14.4770	 2652.00	 2593.61	-1244.18	 2275.48
     14.5030	 2618.00	 2595.90	-1280.47	 2277.71
     14.5290	 2634.00	 2598.22	-1266.79	 2279.97
     14.5550	 2608.00	 2600.57	-1295.13	 2282.25
     14.5810	 2594.00	 2602.94	-1311.50	 2284.56
     14.6070	 2636.00	 2605.34	-1271.90	 2286.90
     14.6330	 2582.00	 2607.76	-1328.33	 2289.26
     14.6590	 2560.00	 2610.22	-1352.78	 2291.65
     14.6850	 2623.00	 2612.69	-1292.26	 2294.06
     14.7110	 2635.00	 2615.20	-1282.76	 2296.49
     14.7370	 2635.00	 2617.73	-1285.29	 2298.95
     14.7630	 2621.00	 2620.28	-1301.85	 2301.44
     14.7890	 2564.00	 2622.86	-1361.43	 2303.95
     14.8150	 2568.00	 2625.47	-1360.04	 2306.48
     14.8410	 2554.00	 2628.10	-1376.67	 2309.04
     14.8670	 2583.00	 2630.76	-1350.32	 2311.62
     14.8930	 2700.00	 2633.44	-1236.01	 2314.22
     14.9190	 2620.00	 2636.15	-1318.71	 2316.85
     14.9450	 2645.00	 2638.88	-1296.44	 2319.50
     14.9710	 2562.00	 2641.63	-1382.20	 2322.17
     14.9970	 2610.00	 2644.41	-1336.98	 2324.86
     15.0230	 2614.00	 2647.22	-1335.78	 2327.58
     15.0490	 2693.00	 2650.04	-1259.61	 2330.32
     15.0750	 2689.00	 2652.90	-1266.46	 2333.08
     15.1010	 2630.00	 2655.77	-1328.33	 2335.86
     15.1270	 2704.00	 2658.67	-1257.23	 2338.66
     15.1530	 2679.00	 2661.59	-1285.16	 2341.49
     15.1790	 2604.00	 2664.54	-1363.10	 2344.34
     15.2050	 2722.00	 2667.50	-1248.07	 2347.20
     15.2310	 2679.00	 2670.49	-1294.06	 2350.09
     15.2570	 2696.00	 2673.51	-1280.07	 2353.00
     15.2830	 2660.00	 2676.55	-1319.11	 2355.93
     15.3090	 2715.00	 2679.60	-1267.17	 2358.88
     15.3350	 2649.00	 2682.69	-1336.25	 2361.84
     15.3610	 2737.00	 2685.79	-1251.36	 2364.83
     15.3870	 2628.00	 2688.92	-1363.48	 2367.84
     15.4130	 2614.00	 2692.07	-1380.63	 2370.86
     15.4390	 2686.00	 2695.24	-1311.80	 2373.91
     15.4650	 2622.00	 2698.43	-1378.99	 2376.97
     15.4910	 2557.00	 2701.64	-1447.21	 2380.06
     15.5170	 2668.00	 2704.88	-1339.44	 2383.16
     15.5430	 2630.00	 2708.14	-1380.70	 2386.28
     15.5690	 2600.00	 2711.42	-1413.98	 2389.42
     15.5950	 2649.00	 2714.72	-1368.28	 2392.57
     15.6210	 2625.00	 2718.04	-1395.60	 2395.75
     15.6470	 2647.00	 2721.38	-1376.95	 2398.94
     15.6730	 2662.00	 2724.75	-1365.31	 2402.14
     15.6990	 2657.00	 2728.24	-1373.80	 2405.37
     15.7250	 2639.00	 2731.65	-1395.21	 2408.61
     15.7510	 2698.00	 2735.08	-1339.64	 2411.87
     15.7770	 2695.00	 2738.53	-1346.09	 2415.14
     15.8030	 2626.00	 2742.00	-1418.56	 2418.43
     15.8290	 2589.00	 2745.54	-1459.11	 2421.74
     15.8550	 2653.00	 2749.06	-1398.62	 2425.06
     15.8810	 2611.00	 2752.59	-1444.16	 2428.40
     15.9070	 2578.00	 2756.15	-1480.71	 2431.75
     15.9330	 2556.00	 2759.72	-1506.29	 2435.12
     15.9590	 2709.00	 2763.32	-1356.89	 2438.50
     15.9850	 2744.00	 2766.94	-1325.51	 2441.90
     16.0110	 2716.00	 2770.58	-1357.15	 2445.31
     16.0370	 2665.00	 2774.25	-1411.81	 2448.74
     16.0630	 2727.00	 2777.93	-1353.49	 2452.18
     16.0890	 2687.00	 2781.64	-1397.20	 2455.64
     16.1150	 2738.00	 2785.36	-1349.93	 2459.11
     16.1410	 2709.00	 2789.11	-1382.68	 2462.59
     16.1670	 2738.00	 2792.89	-1357.45	 2466.08
     16.1930	 2678.00	 2796.68	-1421.25	 2469.59
     16.2190	 2711.00	 2800.50	-1392.06	 2473.11
     16.2450	 2634.00	 2804.34	-1472.90	 2476.65
     16.2710	 2690.00	 2808.20	-1420.76	 2480.20
     16.2970	 2766.00	 2812.09	-1348.65	 2483.76
     16.3230	 2770.00	 2816.00	-1348.56	 2487.33
     16.3490	 2768.00	 2819.93	-1354.49	 2490.91
     16.3750	 2773.00	 2823.89	-1353.45	 2494.50
     16.4010	 2674.00	 2827.87	-1456.44	 2498.11
     16.4270	 2712.00	 2831.88	-1422.44	 2501.73
     16.4530	 2771.00	 2835.91	-1367.48	 2505.36
     16.4790	 2677.00	 2839.97	-1465.54	 2509.00
     16.5050	 2639.00	 2844.06	-1507.63	 2512.65
     16.5310	 2746.00	 2848.18	-1404.74	 2516.31
     16.5570	 2762.00	 2852.32	-1392.89	 2519.98
     16.5830	 2678.00	 2856.49	-1481.06	 2523.66
     16.6090	 2700.00	 2860.70	-1463.26	 2527.36
     16.6350	 2780.00	 2864.93	-1387.49	 2531.06
     16.6610	 2786.00	 2869.19	-1385.76	 2534.77
     16.6870	 2798.00	 2873.49	-1378.06	 2538.49
     16.7130	 2816.00	 2877.82	-1364.39	 2542.22
     16.7390	 2840.00	 2882.19	-1344.75	 2545.96
     16.7650	 2801.00	 2886.59	-1388.16	 2549.70
     16.7910	 2776.00	 2891.03	-1417.60	 2553.46
     16.8170	 2845.00	 2895.51	-1353.08	 2557.22
     16.8430	 2875.00	 2900.03	-1327.60	 2560.99
     16.8690	 2853.00	 2904.60	-1354.16	 2564.77
     16.8950	 2839.00	 2909.20	-1372.77	 2568.56
     16.9210	 2833.00	 2913.86	-1383.42	 2572.36
     16.9470	 2833.00	 2918.56	-1388.13	 2576.16
     16.9730	 2915.00	 2923.32	-1310.88	 2579.97
     16.9990	 2961.00	 2928.13	-1269.69	 2583.79
     17.0250	 2921.00	 2932.99	-1314.56	 2587.61
     17.0510	 2877.00	 2937.92	-1363.48	 2591.44
     17.0770	 2849.00	 2942.91	-1396.47	 2595.28
     17.1030	 2852.00	 2947.96	-1398.53	 2599.12
     17.1290	 2819.00	 2953.09	-1436.65	 2602.97
     17.1550	 2894.00	 2958.29	-1366.86	 2606.82
     17.1810	 2906.00	 2963.57	-1360.14	 2610.69
     17.2070	 2922.00	 2968.94	-1349.50	 2614.55
     17.2330	 2913.00	 2974.39	-1363.96	 2618.42
     17.2590	 2894.00	 2979.94	-1388.50	 2622.30
     17.2850	 2906.00	 2985.59	-1382.15	 2626.18
     17.3110	 2967.00	 2991.35	-1326.91	 2630.07
     17.3370	 2951.00	 2997.22	-1348.78	 2633.96
     17.3630	 2949.00	 3003.21	-1356.78	 2637.85
     17.3890	 3055.00	 3009.34	-1256.90	 2641.75
     17.4150	 2976.00	 3015.60	-1342.17	 2645.65
     17.4410	 3094.00	 3022.01	-1230.58	 2649.56
     17.4670	 3035.00	 3028.58	-1296.14	 2653.47
     17.4930	 3050.00	 3035.31	-1287.88	 2657.38
     17.5190	 3112.00	 3042.23	-1232.79	 2661.30
     17.5450	 3044.00	 3049.33	-1307.89	 2665.22
     17.5710	 3030.00	 3056.63	-1329.20	 2669.14
     17.5970	 3018.00	 3064.15	-1348.71	 2673.07
     17.6230	 3089.00	 3071.89	-1285.46	 2676.99
     17.6490	 3027.00	 3079.87	-1355.44	 2680.92
     17.6750	 3088.00	 3088.10	-1302.67	 2684.86
     17.7010	 3037.00	 3096.59	-1362.15	 2688.79
     17.7270	 3091.00	 3105.35	-1316.92	 2692.73
     17.7530	 3060.00	 3114.39	-1356.96	 2696.66
     17.7790	 3149.00	 3123.72	-1277.29	 2700.60
     17.8050	 3177.00	 3133.34	-1258.91	 2704.54
     17.8310	 3217.00	 3143.25	-1228.82	 2708.48
     17.8570	 3242.00	 3153.45	-1214.02	 2712.42
     17.8830	 3263.00	 3163.92	-1203.49	 2716.36
     17.9090	 3249.00	 3174.65	-1228.21	 2720.31
     17.9350	 3270.00	 3185.60	-1218.17	 2724.25
     17.9610	 3292.00	 3196.74	-1207.31	 2728.19
     17.9870	 3336.00	 3208.02	-1174.59	 2732.14
     18.0130	 3260.00	 3219.37	-1261.94	 2736.08
     18.0390	 3282.00	 3230.71	-1251.27	 2740.02
     18.0650	 3266.00	 3241.93	-1278.50	 2743.96
     18.0910	 3407.00	 3252.94	-1148.50	 2747.90
     18.1170	 3348.00	 3263.61	-1218.17	 2751.84
     18.1430	 3347.00	 3273.80	-1229.37	 2755.78
     18.1690	 3436.00	 3283.39	-1149.95	 2759.72
     18.1950	 3392.00	 3292.23	-1202.79	 2763.66
     18.2210	 3369.00	 3300.19	-1233.76	 2767.59
     18.2470	 3448.00	 3307.18	-1161.74	 2771.52
     18.2730	 3558.00	 3313.09	-1057.65	 2775.45
     18.2990	 3464.00	 3317.86	-1156.43	 2779.38
     18.3250	 3515.00	 3321.49	-1109.05	 2783.31
     18.3510	 3440.00	 3323.96	-1186.53	 2787.23
     18.3770	 3466.00	 3325.33	-1161.90	 2791.15
     18.4030	 3463.00	 3325.68	-1165.24	 2795.07
     18.4290	 3449.00	 3325.10	-1178.66	 2798.99
     18.4550	 3417.00	 3323.71	-1209.27	 2802.90
     18.4810	 3344.00	 3321.65	-1280.22	 2806.81
     18.5070	 3444.00	 3319.06	-1177.62	 2810.71
     18.5330	 3324.00	 3316.06	-1294.63	 2814.61
     18.5590	 3446.00	 3312.79	-1169.35	 2818.51
     18.5850	 3359.00	 3309.36	-1252.92	 2822.41
     18.6110	 3412.00	 3305.87	-1196.44	 2826.30
     18.6370	 3484.00	 3302.41	-1120.98	 2830.18
     18.6630	 3377.00	 3299.06	-1224.62	 2834.06
     18.6890	 3435.00	 3295.86	-1163.43	 2837.94
     18.7150	 3436.00	 3292.88	-1159.44	 2841.81
     18.7410	 3427.00	 3290.13	-1165.69	 2845.68
     18.7670	 3334.00	 3287.64	-1256.20	 2849.54
     18.7930	 3362.00	 3285.42	-1225.99	 2853.39
     18.8190	 3373.00	 3283.49	-1213.06	 2857.24
     18.8450	 3328.00	 3281.85	-1256.41	 2861.09
     18.8710	 3308.00	 3280.48	-1275.05	 2864.93
     18.8970	 3306.00	 3279.40	-1275.96	 2868.76
     18.9230	 3380.00	 3278.58	-1201.14	 2872.59
     18.9490	 3390.00	 3278.02	-1190.58	 2876.41
     18.9750	 3311.00	 3277.70	-1269.27	 2880.23
     19.0010	 3313.00	 3277.62	-1267.19	 2884.03
     19.0270	 3317.00	 3277.76	-1263.33	 2887.84
     19.0530	 3339.00	 3278.11	-1241.68	 2891.63
     19.0790	 3314.00	 3278.66	-1267.23	 2895.42
     19.1050	 3319.00	 3279.39	-1262.96	 2899.20
     19.1310	 3333.00	 3280.30	-1249.86	 2902.97
     19.1570	 3305.00	 3281.36	-1278.93	 2906.74
     19.1830	 3377.00	 3282.58	-1208.15	 2910.50
     19.2090	 3421.00	 3283.94	-1165.50	 2914.25
     19.2350	 3353.00	 3285.43	-1234.99	 2917.99
     19.2610	 3292.00	 3287.04	-1297.60	 2921.73
     19.2870	 3333.00	 3288.76	-1258.32	 2925.45
     19.3130	 3320.00	 3290.59	-1273.15	 2929.17
     19.3390	 3288.00	 3292.52	-1307.08	 2932.88
     19.3650	 3294.00	 3294.53	-1303.10	 2936.58
     19.3910	 3309.00	 3296.63	-1290.20	 2940.28
     19.4170	 3344.00	 3298.81	-1257.38	 2943.96
     19.4430	 3294.00	 3301.06	-1309.63	 2947.64
     19.4690	 3276.00	 3303.38	-1329.94	 2951.30
     19.4950	 3384.00	 3305.76	-1224.32	 2954.96
     19.5210	 3393.00	 3308.20	-1217.76	 2958.61
     19.5470	 3301.00	 3310.68	-1312.25	 2962.24
     19.5730	 3228.00	 3313.22	-1387.79	 2965.87
     19.5990	 3245.00	 3315.81	-1373.37	 2969.49
     19.6250	 3355.00	 3318.43	-1266.00	 2973.10
     19.6510	 3411.00	 3321.09	-1212.66	 2976.70
     19.6770	 3439.00	 3323.79	-1187.36	 2980.28
     19.7030	 3367.00	 3326.52	-1262.09	 2983.86
     19.7290	 3314.00	 3329.28	-1317.85	 2987.43
     19.7550	 3417.00	 3332.07	-1217.64	 2990.98
     19.7810	 3431.00	 3334.89	-1206.45	 2994.53
     19.8070	 3431.00	 3337.72	-1209.29	 2998.07
     19.8330	 3385.00	 3340.58	-1258.14	 3001.59
     19.8590	 3346.00	 3343.45	-1300.02	 3005.10
     19.8850	 3384.00	 3346.35	-1264.91	 3008.60
     19.9110	 3329.00	 3349.26	-1322.82	 3012.09
     19.9370	 3311.00	 3352.18	-1343.74	 3015.57
     19.9630	 3366.00	 3355.11	-1291.68	 3019.04
     19.9890	 3402.00	 3358.06	-1258.62	 3022.49
     20.0150	 3419.00	 3361.01	-1244.58	 3025.94
     20.0410	 3477.00	 3363.98	-1189.54	 3029.37
     20.0670	 3404.00	 3366.95	-1265.51	 3032.79
     20.0930	 3400.00	 3369.92	-1272.49	 3036.19
     20.1190	 3376.00	 3372.91	-1299.47	 3039.59
     20.1450	 3491.00	 3375.89	-1187.46	 3042.97
     20.1710	 3491.00	 3378.88	-1190.45	 3046.34
     20.1970	 3532.00	 3381.87	-1152.44	 3049.69
     20.2230	 3460.00	 3384.87	-1227.43	 3053.04
     20.2490	 3401.00	 3387.86	-1289.43	 3056.37
     20.2750	 3465.00	 3390.85	-1228.42	 3059.68
     20.3010	 3514.00	 3393.85	-1182.41	 3062.99
     20.3270	 3429.00	 3396.84	-1270.40	 3066.28
     20.3530	 3375.00	 3399.83	-1327.40	 3069.55
     20.3790	 3444.00	 3402.82	-1261.38	 3072.82
     20.4050	 3460.00	 3405.80	-1248.37	 3076.07
     20.4310	 3523.00	 3408.78	-1188.35	 3079.30
     20.4570	 3514.00	 3411.76	-1200.32	 3082.53
     20.4830	 3406.00	 3414.73	-1311.29	 3085.73
     20.5090	 3388.00	 3417.69	-1332.26	 3088.93
     20.5350	 3387.00	 3420.65	-1336.22	 3092.11
     20.5610	 3566.00	 3423.61	-1160.17	 3095.27
     20.5870	 3589.00	 3426.55	-1140.12	 3098.42
     20.6130	 3424.00	 3429.49	-1308.06	 3101.56
     20.6390	 3442.00	 3432.42	-1292.99	 3104.68
     20.6650	 3460.00	 3435.35	-1277.91	 3107.79
     20.6910	 3425.00	 3438.26	-1315.83	 3110.88
     20.7170	 3504.00	 3441.17	-1239.73	 3113.96
     20.7430	 3537.00	 3444.07	-1209.63	 3117.02
     20.7690	 3465.00	 3446.96	-1284.52	 3120.07
     20.7950	 3484.00	 3449.83	-1268.40	 3123.10
     20.8210	 3426.00	 3452.70	-1329.27	 3126.12
     20.8470	 3490.00	 3455.56	-1268.13	 3129.12
     20.8730	 3576.00	 3458.41	-1184.97	 3132.10
     20.8990	 3538.00	 3461.25	-1225.81	 3135.07
     20.9250	 3544.00	 3464.07	-1222.64	 3138.03
     20.9510	 3439.00	 3466.89	-1330.45	 3140.96
     20.9770	 3494.00	 3469.69	-1278.26	 3143.89
     21.0030	 3446.00	 3472.48	-1329.05	 3146.79
     21.0290	 3542.00	 3475.26	-1235.83	 3149.68
     21.0550	 3485.00	 3478.03	-1295.59	 3152.56
     21.0810	 3552.00	 3480.78	-1231.35	 3155.41
     21.1070	 3514.00	 3483.52	-1272.09	 3158.25
     21.1330	 3519.00	 3486.25	-1269.82	 3161.08
     21.1590	 3608.00	 3488.97	-1183.53	 3163.89
     21.1850	 3595.00	 3491.67	-1199.24	 3166.68
     21.2110	 3572.00	 3494.36	-1224.93	 3169.45
     21.2370	 3580.00	 3497.03	-1219.60	 3172.21
     21.2630	 3643.00	 3499.70	-1159.26	 3174.95
     21.2890	 3566.00	 3502.34	-1238.91	 3177.67
     21.3150	 3528.00	 3504.98	-1279.54	 3180.38
     21.3410	 3515.00	 3507.59	-1295.16	 3183.07
     21.3670	 3511.00	 3510.20	-1301.76	 3185.74
     21.3930	 3531.00	 3512.79	-1284.35	 3188.40
     21.4190	 3643.00	 3515.36	-1174.93	 3191.03
     21.4450	 3571.00	 3517.92	-1249.48	 3193.65
     21.4710	 3535.00	 3520.46	-1288.03	 3196.26
     21.4970	 3601.00	 3522.99	-1224.56	 3198.84
     21.5230	 3689.00	 3525.50	-1139.07	 3201.41
     21.5490	 3583.00	 3528.00	-1247.57	 3203.96
     21.5750	 3632.00	 3530.48	-1201.05	 3206.49
     21.6010	 3675.00	 3532.95	-1160.51	 3209.00
     21.6270	 3623.00	 3535.41	-1214.97	 3211.50
     21.6530	 3592.00	 3537.84	-1248.41	 3213.97
     21.6790	 3592.00	 3540.26	-1250.82	 3216.43
     21.7050	 3675.00	 3542.66	-1170.22	 3218.87
     21.7310	 3590.00	 3545.04	-1257.61	 3221.30
     21.7570	 3535.00	 3547.42	-1314.98	 3223.70
     21.7830	 3580.00	 3549.77	-1272.33	 3226.08
     21.8090	 3616.00	 3552.10	-1238.67	 3228.45
     21.8350	 3641.00	 3554.42	-1215.98	 3230.80
     21.8610	 3645.00	 3556.72	-1214.28	 3233.13
     21.8870	 3595.00	 3559.00	-1266.57	 3235.44
     21.9130	 3536.00	 3561.27	-1327.83	 3237.73
     21.9390	 3532.00	 3563.52	-1334.08	 3240.01
     21.9650	 3585.00	 3565.75	-1283.31	 3242.26
     21.9910	 3622.00	 3567.96	-1248.53	 3244.50
     22.0170	 3655.00	 3570.16	-1217.72	 3246.71
     22.0430	 3635.00	 3572.34	-1239.90	 3248.91
     22.0690	 3632.00	 3574.50	-1245.06	 3251.09
     22.0950	 3676.00	 3576.64	-1203.21	 3253.25
     22.1210	 3608.00	 3578.77	-1273.33	 3255.39
     22.1470	 3547.00	 3580.87	-1336.44	 3257.51
     22.1730	 3608.00	 3582.96	-1277.53	 3259.61
     22.1990	 3592.00	 3585.03	-1295.60	 3261.69
     22.2250	 3527.00	 3587.09	-1362.65	 3263.75
     22.2510	 3602.00	 3589.12	-1289.69	 3265.79
     22.2770	 3627.00	 3591.14	-1266.70	 3267.81
     22.3030	 3617.00	 3593.13	-1278.70	 3269.82
     22.3290	 3635.00	 3595.11	-1262.68	 3271.80
     22.3550	 3655.00	 3597.07	-1244.64	 3273.76
     22.3810	 3687.00	 3599.01	-1214.58	 3275.71
     22.4070	 3689.00	 3600.94	-1214.50	 3277.63
     22.4330	 3635.00	 3602.84	-1270.41	 3279.54
     22.4590	 3618.00	 3604.73	-1289.29	 3281.42
     22.4850	 3662.00	 3606.59	-1247.16	 3283.28
     22.5110	 3695.00	 3608.44	-1216.00	 3285.13
     22.5370	 3631.00	 3610.27	-1281.83	 3286.95
     22.5630	 3544.00	 3612.08	-1370.64	 3288.76
     22.5890	 3619.00	 3613.87	-1297.43	 3290.54
     22.6150	 3684.00	 3615.64	-1234.20	 3292.30
     22.6410	 3621.00	 3617.39	-1298.95	 3294.05
     22.6670	 3661.00	 3619.12	-1260.68	 3295.77
     22.6930	 3675.00	 3620.83	-1248.40	 3297.47
     22.7190	 3723.00	 3622.53	-1202.09	 3299.15
     22.7450	 3659.00	 3624.20	-1267.76	 3300.81
     22.7710	 3580.00	 3625.85	-1348.42	 3302.46
     22.7970	 3573.00	 3627.49	-1357.05	 3304.08
     22.8230	 3615.00	 3629.10	-1316.67	 3305.68
     22.8490	 3544.00	 3630.70	-1389.26	 3307.26
     22.8750	 3647.00	 3632.27	-1287.84	 3308.82
     22.9010	 3694.00	 3633.83	-1242.40	 3310.35
     22.9270	 3723.00	 3635.37	-1214.93	 3311.87
     22.9530	 3689.00	 3636.88	-1250.45	 3313.37
     22.9790	 3687.00	 3638.38	-1253.94	 3314.84
     23.0050	 3619.00	 3639.86	-1323.42	 3316.30
     23.0310	 3623.00	 3641.31	-1320.88	 3317.73
     23.0570	 3701.00	 3642.75	-1244.32	 3319.15
     23.0830	 3565.00	 3644.17	-1381.73	 3320.54
     23.1090	 3568.00	 3645.56	-1380.13	 3321.91
     23.1350	 3616.00	 3646.94	-1333.51	 3323.27
     23.1610	 3609.00	 3648.30	-1341.86	 3324.60
     23.1870	 3637.00	 3649.64	-1315.20	 3325.90
     23.2130	 3620.00	 3650.95	-1333.52	 3327.19
     23.2390	 3620.00	 3652.25	-1334.81	 3328.46
     23.2650	 3707.00	 3653.52	-1249.09	 3329.71
     23.2910	 3739.00	 3654.78	-1218.35	 3330.93
     23.3170	 3734.00	 3656.02	-1224.58	 3332.14
     23.3430	 3594.00	 3657.23	-1365.80	 3333.32
     23.3690	 3543.00	 3658.43	-1417.99	 3334.48
     23.3950	 3602.00	 3659.60	-1360.17	 3335.62
     23.4210	 3498.00	 3660.76	-1465.32	 3336.74
     23.4470	 3652.00	 3661.89	-1312.46	 3337.84
     23.4730	 3587.00	 3663.01	-1378.57	 3338.92
     23.4990	 3758.00	 3664.10	-1208.67	 3339.98
     23.5250	 3660.00	 3665.18	-1307.74	 3341.01
     23.5510	 3701.00	 3666.23	-1267.79	 3342.02
     23.5770	 3714.00	 3667.26	-1255.83	 3343.02
     23.6030	 3682.00	 3668.27	-1288.84	 3343.99
     23.6290	 3586.00	 3669.27	-1385.83	 3344.94
     23.6550	 3575.00	 3670.24	-1397.80	 3345.87
     23.6810	 3742.00	 3671.19	-1231.75	 3346.78
     23.7070	 3586.00	 3672.14	-1388.70	 3347.66
     23.7330	 3552.00	 3673.05	-1423.62	 3348.53
     23.7590	 3589.00	 3673.94	-1387.51	 3349.37
     23.7850	 3639.00	 3674.81	-1338.38	 3350.19
     23.8110	 3650.00	 3675.66	-1328.22	 3351.00
     23.8370	 3609.00	 3676.50	-1370.06	 3351.78
     23.8630	 3623.00	 3677.31	-1356.87	 3352.53
     23.8890	 3699.00	 3678.10	-1281.66	 3353.27
     23.9150	 3657.00	 3678.86	-1324.43	 3353.99
     23.9410	 3528.00	 3679.61	-1454.18	 3354.68
     23.9670	 3635.00	 3680.34	-1347.90	 3355.36
     23.9930	 3606.00	 3681.04	-1377.61	 3356.01
     24.0190	 3560.00	 3681.73	-1424.29	 3356.64
     24.0450	 3611.00	 3682.40	-1373.96	 3357.25
     24.0710	 3570.00	 3683.04	-1415.61	 3357.84
     24.0970	 3639.00	 3683.67	-1347.23	 3358.40
     24.1230	 3559.00	 3684.27	-1427.84	 3358.95
     24.1490	 3595.00	 3684.86	-1392.42	 3359.47
     24.1750	 3605.00	 3685.42	-1382.98	 3359.97
     24.2010	 3592.00	 3685.96	-1396.53	 3360.46
     24.2270	 3592.00	 3686.49	-1397.05	 3360.92
     24.2530	 3599.00	 3686.99	-1390.55	 3361.35
     24.2790	 3597.00	 3687.47	-1393.04	 3361.77
     24.3050	 3597.00	 3687.93	-1393.50	 3362.17
     24.3310	 3627.00	 3688.38	-1363.94	 3362.54
     24.3570	 3643.00	 3688.81	-1348.37	 3362.90
     24.3830	 3626.00	 3689.21	-1365.77	 3363.23
     24.4090	 3668.00	 3689.59	-1324.15	 3363.54
     24.4350	 3631.00	 3689.95	-1361.52	 3363.83
     24.4610	 3638.00	 3690.29	-1354.86	 3364.10
     24.4870	 3655.00	 3690.61	-1338.18	 3364.35
     24.5130	 3655.00	 3690.92	-1338.48	 3364.57
     24.5390	 3632.00	 3691.20	-1361.77	 3364.78
     24.5650	 3582.00	 3691.46	-1412.03	 3364.96
     24.5910	 3621.00	 3691.70	-1373.27	 3365.12
     24.6170	 3609.00	 3691.92	-1385.49	 3365.27
     24.6430	 3543.00	 3692.12	-1451.69	 3365.38
     24.6690	 3579.00	 3692.31	-1415.87	 3365.48
     24.6950	 3670.00	 3692.47	-1325.03	 3365.56
     24.7210	 3694.00	 3692.61	-1301.17	 3365.62
     24.7470	 3692.00	 3692.73	-1303.30	 3365.66
     24.7730	 3743.00	 3692.83	-1252.40	 3365.67
     24.7990	 3702.00	 3692.92	-1293.48	 3365.66
     24.8250	 3660.00	 3692.98	-1335.54	 3365.64
     24.8510	 3645.00	 3693.02	-1350.59	 3365.59
     24.8770	 3535.00	 3693.04	-1460.61	 3365.52
     24.9030	 3563.00	 3693.05	-1432.61	 3365.43
     24.9290	 3646.00	 3693.03	-1349.60	 3365.32
     24.9550	 3665.00	 3693.00	-1330.56	 3365.19
     24.9810	 3658.00	 3692.94	-1337.51	 3365.03
     25.0070	 3663.00	 3692.87	-1332.43	 3364.86
     25.0330	 3713.00	 3692.77	-1282.34	 3364.67
     25.0590	 3701.00	 3692.66	-1294.23	 3364.45
     25.0850	 3669.00	 3692.53	-1326.09	 3364.22
     25.1110	 3621.00	 3692.38	-1373.94	 3363.96
     25.1370	 3536.00	 3692.21	-1458.77	 3363.68
     25.1630	 3567.00	 3692.02	-1427.58	 3363.38
     25.1890	 3672.00	 3691.81	-1322.38	 3363.06
     25.2150	 3655.00	 3691.58	-1339.15	 3362.73
     25.2410	 3535.00	 3691.34	-1458.90	 3362.37
     25.2670	 3554.00	 3691.07	-1439.64	 3361.98
     25.2930	 3660.00	 3690.79	-1333.35	 3361.58
     25.3190	 3620.00	 3690.49	-1373.05	 3361.16
     25.3450	 3581.00	 3690.17	-1411.73	 3360.72
     25.3710	 3544.00	 3689.83	-1448.39	 3360.26
     25.3970	 3607.00	 3689.47	-1385.03	 3359.78
     25.4230	 3634.00	 3689.09	-1357.65	 3359.27
     25.4490	 3536.00	 3688.70	-1455.26	 3358.75
     25.4750	 3586.00	 3688.28	-1404.85	 3358.21
     25.5010	 3639.00	 3687.85	-1351.41	 3357.64
     25.5270	 3607.00	 3687.40	-1382.97	 3357.06
     25.5530	 3641.00	 3686.93	-1348.50	 3356.45
     25.5790	 3655.00	 3686.45	-1334.01	 3355.83
     25.6050	 3589.00	 3685.94	-1399.51	 3355.18
     25.6310	 3620.00	 3685.42	-1367.99	 3354.52
     25.6570	 3566.00	 3684.88	-1421.45	 3353.83
     25.6830	 3613.00	 3684.33	-1373.89	 3353.13
     25.7090	 3664.00	 3683.75	-1322.32	 3352.40
     25.7350	 3589.00	 3683.16	-1396.72	 3351.66
     25.7610	 3721.00	 3682.55	-1264.11	 3350.90
     25.7870	 3535.00	 3681.92	-1449.49	 3350.11
     25.8130	 3613.00	 3681.28	-1370.84	 3349.31
     25.8390	 3672.00	 3680.62	-1311.18	 3348.48
     25.8650	 3674.00	 3679.94	-1308.50	 3347.64
     25.8910	 3591.00	 3679.24	-1390.81	 3346.78
     25.9170	 3624.00	 3678.53	-1357.10	 3345.90
     25.9430	 3522.00	 3677.80	-1458.37	 3344.99
     25.9690	 3620.00	 3677.06	-1359.62	 3344.07
     25.9950	 3638.00	 3676.30	-1340.86	 3343.13
     26.0210	 3590.00	 3675.52	-1388.08	 3342.17
     26.0470	 3551.00	 3674.72	-1426.29	 3341.19
     26.0730	 3635.00	 3673.91	-1341.48	 3340.19
     26.0990	 3599.00	 3673.09	-1376.65	 3339.17
     26.1250	 3586.00	 3672.24	-1388.81	 3338.14
     26.1510	 3599.00	 3671.39	-1374.95	 3337.08
     26.1770	 3514.00	 3670.51	-1459.08	 3336.00
     26.2030	 3584.00	 3669.62	-1388.19	 3334.91
     26.2290	 3678.00	 3668.72	-1293.28	 3333.79
     26.2550	 3744.00	 3667.80	-1226.36	 3332.66
     26.2810	 3678.00	 3666.86	-1291.43	 3331.51
     26.3070	 3626.00	 3665.91	-1342.48	 3330.34
     26.3330	 3551.00	 3664.95	-1416.51	 3329.15
     26.3590	 3654.00	 3663.97	-1312.53	 3327.94
     26.3850	 3553.00	 3662.97	-1412.54	 3326.71
     26.4110	 3547.00	 3661.97	-1417.53	 3325.47
     26.4370	 3634.00	 3660.94	-1329.51	 3324.21
     26.4630	 3538.00	 3659.91	-1424.47	 3322.92
     26.4890	 3535.00	 3658.86	-1426.42	 3321.62
     26.5150	 3624.00	 3657.79	-1336.36	 3320.30
     26.5410	 3536.00	 3656.71	-1423.28	 3318.96
     26.5670	 3585.00	 3655.62	-1373.19	 3317.61
     26.5930	 3569.00	 3654.52	-1388.08	 3316.23
     26.6190	 3584.00	 3653.40	-1371.97	 3314.84
     26.6450	 3583.00	 3652.27	-1371.84	 3313.43
     26.6710	 3612.00	 3651.13	-1341.70	 3312.00
     26.6970	 3499.00	 3649.98	-1453.54	 3310.56
     26.7230	 3591.00	 3648.81	-1360.38	 3309.09
     26.7490	 3548.00	 3647.63	-1402.20	 3307.61
     26.7750	 3598.00	 3646.45	-1351.01	 3306.11
     26.8010	 3580.00	 3645.24	-1367.81	 3304.59
     26.8270	 3578.00	 3644.04	-1368.60	 3303.05
     26.8530	 3592.00	 3642.82	-1353.38	 3301.50
     26.8790	 3687.00	 3641.58	-1257.15	 3299.93
     26.9050	 3621.00	 3640.34	-1321.90	 3298.34
     26.9310	 3642.00	 3639.08	-1299.65	 3296.73
     26.9570	 3625.00	 3637.82	-1315.39	 3295.11
     26.9830	 3539.00	 3636.55	-1400.11	 3293.47
     27.0090	 3521.00	 3635.27	-1416.83	 3291.81
     27.0350	 3523.00	 3633.98	-1413.54	 3290.14
     27.0610	 3596.00	 3632.68	-1339.24	 3288.44
     27.0870	 3649.00	 3631.37	-1284.93	 3286.73
     27.1130	 3589.00	 3630.05	-1343.62	 3285.01
     27.1390	 3543.00	 3628.73	-1388.29	 3283.27
     27.1650	 3573.00	 3627.40	-1356.96	 3281.51
     27.1910	 3637.00	 3626.06	-1291.63	 3279.73
     27.2170	 3648.00	 3624.72	-1279.28	 3277.93
     27.2430	 3632.00	 3623.37	-1293.93	 3276.12
     27.2690	 3632.00	 3622.01	-1292.58	 3274.30
     27.2950	 3634.00	 3620.65	-1289.22	 3272.45
     27.3210	 3569.00	 3619.29	-1352.85	 3270.59
     27.3470	 3553.00	 3617.92	-1367.48	 3268.72
     27.3730	 3595.00	 3616.55	-1324.11	 3266.83
     27.3990	 3524.00	 3615.17	-1393.73	 3264.92
     27.4250	 3485.00	 3613.79	-1431.36	 3262.99
     27.4510	 3527.00	 3612.41	-1387.98	 3261.05
     27.4770	 3545.00	 3611.03	-1368.59	 3259.09
     27.5030	 3526.00	 3609.65	-1386.21	 3257.12
     27.5290	 3567.00	 3608.26	-1343.83	 3255.13
     27.5550	 3622.00	 3606.88	-1287.45	 3253.13
     27.5810	 3609.00	 3605.50	-1299.06	 3251.10
     27.6070	 3567.00	 3604.12	-1339.69	 3249.07
     27.6330	 3520.00	 3602.74	-1385.31	 3247.02
     27.6590	 3535.00	 3601.37	-1368.93	 3244.95
     27.6850	 3575.00	 3600.00	-1327.56	 3242.87
     27.7110	 3569.00	 3598.63	-1332.20	 3240.77
     27.7370	 3550.00	 3597.27	-1349.84	 3238.65
     27.7630	 3615.00	 3595.92	-1283.49	 3236.52
     27.7890	 3662.00	 3594.58	-1235.14	 3234.38
     27.8150	 3614.00	 3593.24	-1281.81	 3232.22
     27.8410	 3521.00	 3591.91	-1373.48	 3230.05
     27.8670	 3575.00	 3590.60	-1318.16	 3227.86
     27.8930	 3544.00	 3589.30	-1347.86	 3225.65
     27.9190	 3497.00	 3588.00	-1393.57	 3223.44
     27.9450	 3638.00	 3586.73	-1251.29	 3221.20
     27.9710	 3586.00	 3585.47	-1302.03	 3218.95
     27.9970	 3542.00	 3584.23	-1344.79	 3216.69
     28.0230	 3436.00	 3583.00	-1449.57	 3214.41
     28.0490	 3437.00	 3581.80	-1447.36	 3212.12
     28.0750	 3477.00	 3580.62	-1406.18	 3209.82
     28.1010	 3441.00	 3579.46	-1441.02	 3207.50
     28.1270	 3614.00	 3578.33	-1266.89	 3205.16
     28.1530	 3545.00	 3577.22	-1334.79	 3202.81
     28.1790	 3400.00	 3576.15	-1478.71	 3200.45
     28.2050	 3553.00	 3575.10	-1324.67	 3198.07
     28.2310	 3522.00	 3574.09	-1354.66	 3195.68
     28.2570	 3490.00	 3573.12	-1385.68	 3193.28
     28.2830	 3542.00	 3572.18	-1332.75	 3190.86
     28.3090	 3657.00	 3571.29	-1216.86	 3188.43
     28.3350	 3636.00	 3570.44	-1237.01	 3185.98
     28.3610	 3489.00	 3569.64	-1383.21	 3183.53
     28.3870	 3557.00	 3568.89	-1314.46	 3181.05
     28.4130	 3483.00	 3568.20	-1387.76	 3178.57
     28.4390	 3463.00	 3567.56	-1407.12	 3176.07
     28.4650	 3507.00	 3566.98	-1362.55	 3173.56
     28.4910	 3557.00	 3566.48	-1312.04	 3171.04
     28.5170	 3492.00	 3566.04	-1376.60	 3168.50
     28.5430	 3497.00	 3565.67	-1371.24	 3165.95
     28.5690	 3516.00	 3565.39	-1351.96	 3163.38
     28.5950	 3535.00	 3565.20	-1332.76	 3160.81
     28.6210	 3615.00	 3565.09	-1252.65	 3158.22
     28.6470	 3609.00	 3565.08	-1258.65	 3155.62
     28.6730	 3538.00	 3565.18	-1329.74	 3153.00
     28.6990	 3632.00	 3565.39	-1235.95	 3150.38
     28.7250	 3540.00	 3565.71	-1328.28	 3147.74
     28.7510	 3464.00	 3566.17	-1404.73	 3145.09
     28.7770	 3566.00	 3566.76	-1303.32	 3142.43
     28.8030	 3545.00	 3567.49	-1325.06	 3139.75
     28.8290	 3587.00	 3568.38	-1283.95	 3137.06
     28.8550	 3535.00	 3569.44	-1337.00	 3134.36
     28.8810	 3531.00	 3570.67	-1342.23	 3131.65
     28.9070	 3548.00	 3572.09	-1326.66	 3128.93
     28.9330	 3534.00	 3573.72	-1342.28	 3126.20
     28.9590	 3633.00	 3575.56	-1245.12	 3123.45
     28.9850	 3614.00	 3577.63	-1266.20	 3120.69
     29.0110	 3620.00	 3579.96	-1262.52	 3117.93
     29.0370	 3573.00	 3582.54	-1312.11	 3115.15
     29.0630	 3619.00	 3585.42	-1268.98	 3112.35
     29.0890	 3632.00	 3588.59	-1259.16	 3109.55
     29.1150	 3570.00	 3592.10	-1324.66	 3106.74
     29.1410	 3499.00	 3595.95	-1399.52	 3103.91
     29.1670	 3536.00	 3600.18	-1366.74	 3101.08
     29.1930	 3552.00	 3604.81	-1355.37	 3098.23
     29.2190	 3581.00	 3609.86	-1331.42	 3095.38
     29.2450	 3655.00	 3615.37	-1262.93	 3092.51
     29.2710	 3615.00	 3621.37	-1308.93	 3089.63
     29.2970	 3625.00	 3627.89	-1305.45	 3086.74
     29.3230	 3665.00	 3634.96	-1272.52	 3083.84
     29.3490	 3682.00	 3642.62	-1263.18	 3080.93
     29.3750	 3668.00	 3650.90	-1285.47	 3078.01
     29.4010	 3707.00	 3659.85	-1255.42	 3075.08
     29.4270	 3713.00	 3669.50	-1259.06	 3072.14
     29.4530	 3757.00	 3679.88	-1225.45	 3069.19
     29.4790	 3764.00	 3691.04	-1229.60	 3066.23
     29.5050	 3818.00	 3703.00	-1187.56	 3063.26
     29.5310	 3780.00	 3715.79	-1238.36	 3060.28
     29.5570	 3754.00	 3729.45	-1278.01	 3057.30
     29.5830	 3747.00	 3743.97	-1299.54	 3054.30
     29.6090	 3888.00	 3759.38	-1173.95	 3051.29
     29.6350	 3872.00	 3775.66	-1206.23	 3048.27
     29.6610	 3863.00	 3792.80	-1232.36	 3045.24
     29.6870	 3877.00	 3810.74	-1236.30	 3042.21
     29.7130	 3908.00	 3829.41	-1223.98	 3039.16
     29.7390	 4036.00	 3848.73	-1115.30	 3036.11
     29.7650	 4023.00	 3868.56	-1148.12	 3033.05
     29.7910	 4021.00	 3888.72	-1170.29	 3029.98
     29.8170	 4088.00	 3909.02	-1123.58	 3026.90
     29.8430	 4075.00	 3929.18	-1156.74	 3023.81
     29.8690	 4021.00	 3948.92	-1230.49	 3020.71
     29.8950	 4023.00	 3967.90	-1247.47	 3017.60
     29.9210	 4074.00	 3985.76	-1214.32	 3014.49
     29.9470	 4123.00	 4002.09	-1181.66	 3011.36
     29.9730	 4176.00	 4016.51	-1143.07	 3008.23
     29.9990	 4210.00	 4028.60	-1121.17	 3005.09
     30.0250	 4204.00	 4038.01	-1136.58	 3001.95
     30.0510	 4190.00	 4044.42	-1156.99	 2998.79
     30.0770	 4204.00	 4047.58	-1146.14	 2995.63
     30.1030	 4188.00	 4047.31	-1161.87	 2992.46
     30.1290	 4191.00	 4043.55	-1155.11	 2989.28
     30.1550	 4243.00	 4036.31	-1095.88	 2986.09
     30.1810	 4224.00	 4025.73	-1104.29	 2982.90
     30.2070	 4208.00	 4012.01	-1106.58	 2979.69
     30.2330	 4190.00	 3995.45	-1108.01	 2976.48
     30.2590	 4083.00	 3976.37	-1195.94	 2973.27
     30.2850	 4073.00	 3955.18	-1184.74	 2970.04
     30.3110	 4164.00	 3932.26	-1070.82	 2966.81
     30.3370	 4156.00	 3908.01	-1054.57	 2963.58
     30.3630	 4150.00	 3882.81	-1035.38	 2960.33
     30.3890	 4157.00	 3857.02	-1002.59	 2957.08
     30.4150	 4008.00	 3830.95	-1125.52	 2953.82
     30.4410	 3970.00	 3804.89	-1137.45	 2950.56
     30.4670	 3865.00	 3779.05	-1216.62	 2947.28
     30.4930	 3971.00	 3753.64	-1085.21	 2944.01
     30.5190	 3971.00	 3728.80	-1060.36	 2940.72
     30.5450	 3907.00	 3704.65	-1100.22	 2937.43
     30.5710	 3834.00	 3681.28	-1149.84	 2934.13
     30.5970	 3878.00	 3658.73	-1083.30	 2930.83
     30.6230	 3830.00	 3637.06	-1109.62	 2927.52
     30.6490	 3727.00	 3616.27	-1191.83	 2924.20
     30.6750	 3700.00	 3596.36	-1198.92	 2920.88
     30.7010	 3720.00	 3577.32	-1159.89	 2917.55
     30.7270	 3709.00	 3559.14	-1152.71	 2914.22
     30.7530	 3663.00	 3541.79	-1181.35	 2910.88
     30.7790	 3663.00	 3525.23	-1164.80	 2907.54
     30.8050	 3670.00	 3509.44	-1142.01	 2904.19
     30.8310	 3726.00	 3494.37	-1070.94	 2900.83
     30.8570	 3567.00	 3480.00	-1215.57	 2897.47
     30.8830	 3533.00	 3466.28	-1235.85	 2894.10
     30.9090	 3536.00	 3453.18	-1219.74	 2890.73
     30.9350	 3509.00	 3440.66	-1234.22	 2887.36
     30.9610	 3449.00	 3428.69	-1282.25	 2883.97
     30.9870	 3475.00	 3417.23	-1244.80	 2880.59
     31.0130	 3481.00	 3406.26	-1227.82	 2877.20
     31.0390	 3426.00	 3395.74	-1272.30	 2873.80
     31.0650	 3525.00	 3385.65	-1163.21	 2870.40
     31.0910	 3443.00	 3375.95	-1235.52	 2867.00
     31.1170	 3368.00	 3366.64	-1301.20	 2863.59
     31.1430	 3405.00	 3357.67	-1255.23	 2860.17
     31.1690	 3445.00	 3349.03	-1206.60	 2856.75
     31.1950	 3339.00	 3340.70	-1304.27	 2853.33
     31.2210	 3430.00	 3332.66	-1205.23	 2849.90
     31.2470	 3389.00	 3324.90	-1238.46	 2846.47
     31.2730	 3336.00	 3317.39	-1283.95	 2843.04
     31.2990	 3365.00	 3310.12	-1247.68	 2839.60
     31.3250	 3241.00	 3303.07	-1364.64	 2836.16
     31.3510	 3379.00	 3296.24	-1219.80	 2832.71
     31.3770	 3306.00	 3289.61	-1286.17	 2829.26
     31.4030	 3264.00	 3283.17	-1321.73	 2825.81
     31.4290	 3320.00	 3276.90	-1259.47	 2822.35
     31.4550	 3294.00	 3270.81	-1279.37	 2818.89
     31.4810	 3312.00	 3264.87	-1255.43	 2815.43
     31.5070	 3245.00	 3259.08	-1316.65	 2811.96
     31.5330	 3287.00	 3253.44	-1269.00	 2808.49
     31.5590	 3255.00	 3247.93	-1295.49	 2805.02
     31.5850	 3212.00	 3242.54	-1333.11	 2801.54
     31.6110	 3225.00	 3237.28	-1314.85	 2798.06
     31.6370	 3282.00	 3232.14	-1252.70	 2794.58
     31.6630	 3248.00	 3227.10	-1281.67	 2791.09
     31.6890	 3283.00	 3222.18	-1241.74	 2787.61
     31.7150	 3334.00	 3217.35	-1185.91	 2784.12
     31.7410	 3291.00	 3212.62	-1224.18	 2780.62
     31.7670	 3216.00	 3207.98	-1294.54	 2777.13
     31.7930	 3196.00	 3203.42	-1309.99	 2773.63
     31.8190	 3214.00	 3198.96	-1287.52	 2770.13
     31.8450	 3221.00	 3194.57	-1276.14	 2766.63
     31.8710	 3210.00	 3190.27	-1282.83	 2763.12
     31.8970	 3344.00	 3186.04	-1144.60	 2759.62
     31.9230	 3197.00	 3181.88	-1287.45	 2756.11
     31.9490	 3173.00	 3177.80	-1307.36	 2752.60
     31.9750	 3237.00	 3173.78	-1239.35	 2749.09
     32.0010	 3213.00	 3169.83	-1259.40	 2745.57
     32.0270	 3280.00	 3165.95	-1188.52	 2742.06
     32.0530	 3221.00	 3162.13	-1243.70	 2738.54
     32.0790	 3127.00	 3158.37	-1333.94	 2735.02
     32.1050	 3231.00	 3154.68	-1226.24	 2731.50
     32.1310	 3262.00	 3151.04	-1191.61	 2727.98
     32.1570	 3258.00	 3147.46	-1192.03	 2724.46
     32.1830	 3201.00	 3143.94	-1245.51	 2720.94
     32.2090	 3183.00	 3140.48	-1260.05	 2717.41
     32.2350	 3254.00	 3137.07	-1185.64	 2713.89
     32.2610	 3302.00	 3133.72	-1134.29	 2710.36
     32.2870	 3262.00	 3130.43	-1170.99	 2706.83
     32.3130	 3217.00	 3127.18	-1212.75	 2703.31
     32.3390	 3190.00	 3124.00	-1236.56	 2699.78
     32.3650	 3225.00	 3120.86	-1198.43	 2696.25
     32.3910	 3232.00	 3117.78	-1188.35	 2692.72
     32.4170	 3182.00	 3114.76	-1235.32	 2689.19
     32.4430	 3177.00	 3111.78	-1237.35	 2685.65
     32.4690	 3195.00	 3108.87	-1216.43	 2682.12
     32.4950	 3213.00	 3106.00	-1195.57	 2678.59
     32.5210	 3161.00	 3103.19	-1244.76	 2675.06
     32.5470	 3094.00	 3100.44	-1309.00	 2671.53
     32.5730	 3138.00	 3097.74	-1262.31	 2667.99
     32.5990	 3215.00	 3095.10	-1182.66	 2664.46
     32.6250	 3221.00	 3092.51	-1174.08	 2660.93
     32.6510	 3191.00	 3089.98	-1201.55	 2657.40
     32.6770	 3154.00	 3087.52	-1236.08	 2653.87
     32.7030	 3127.00	 3085.10	-1260.67	 2650.33
     32.7290	 3151.00	 3082.76	-1234.32	 2646.80
     32.7550	 3147.00	 3080.47	-1236.03	 2643.27
     32.7810	 3151.00	 3078.24	-1229.81	 2639.74
     32.8070	 3167.00	 3076.08	-1211.65	 2636.21
     32.8330	 3162.00	 3073.98	-1214.55	 2632.69
     32.8590	 3103.00	 3071.96	-1271.52	 2629.16
     32.8850	 3077.00	 3070.00	-1295.56	 2625.63
     32.9110	 3132.00	 3068.11	-1238.67	 2622.10
     32.9370	 3142.00	 3066.29	-1226.86	 2618.58
     32.9630	 3135.00	 3064.57	-1232.14	 2615.05
     32.9890	 3202.00	 3062.90	-1163.47	 2611.53
     33.0150	 3208.00	 3061.32	-1155.88	 2608.01
     33.0410	 3056.00	 3059.81	-1306.38	 2604.49
     33.0670	 3004.00	 3058.39	-1356.95	 2600.97
     33.0930	 3073.00	 3057.05	-1286.62	 2597.45
     33.1190	 3125.00	 3055.82	-1233.38	 2593.93
     33.1450	 3083.00	 3054.66	-1274.23	 2590.42
     33.1710	 3108.00	 3053.61	-1248.17	 2586.90
     33.1970	 3125.00	 3052.65	-1230.21	 2583.39
     33.2230	 3218.00	 3051.79	-1136.36	 2579.88
     33.2490	 3155.00	 3051.04	-1198.61	 2576.37
     33.2750	 3126.00	 3050.40	-1226.97	 2572.87
     33.3010	 3061.00	 3049.88	-1291.44	 2569.36
     33.3270	 3031.00	 3049.47	-1321.04	 2565.86
     33.3530	 3030.00	 3049.19	-1321.75	 2562.36
     33.3790	 3081.00	 3049.04	-1270.60	 2558.86
     33.4050	 3144.00	 3049.02	-1207.58	 2555.36
     33.4310	 3146.00	 3049.14	-1205.71	 2551.87
     33.4570	 3083.00	 3049.41	-1268.97	 2548.38
     33.4830	 3193.00	 3049.83	-1159.40	 2544.89
     33.5090	 3087.00	 3050.41	-1265.98	 2541.40
     33.5350	 3111.00	 3051.16	-1242.72	 2537.91
     33.5610	 3107.00	 3052.08	-1247.64	 2534.43
     33.5870	 3133.00	 3053.18	-1222.75	 2530.95
     33.6130	 3151.00	 3054.48	-1206.04	 2527.47
     33.6390	 3092.00	 3055.97	-1266.53	 2524.00
     33.6650	 3158.00	 3057.67	-1202.24	 2520.53
     33.6910	 3104.00	 3059.60	-1258.16	 2517.06
     33.7170	 3107.00	 3061.75	-1257.31	 2513.59
     33.7430	 3132.00	 3064.14	-1234.71	 2510.13
     33.7690	 3097.00	 3066.79	-1272.36	 2506.67
     33.7950	 3185.00	 3069.71	-1187.28	 2503.22
     33.8210	 3226.00	 3072.91	-1149.47	 2499.76
     33.8470	 3160.00	 3076.41	-1218.97	 2496.31
     33.8730	 3068.00	 3080.22	-1314.78	 2492.87
     33.8990	 3037.00	 3084.36	-1349.92	 2489.42
     33.9250	 3150.00	 3088.84	-1241.41	 2485.98
     33.9510	 3132.00	 3093.70	-1264.26	 2482.55
     33.9770	 3188.00	 3098.94	-1213.51	 2479.11
     34.0030	 3143.00	 3104.60	-1264.16	 2475.68
     34.0290	 3116.00	 3110.69	-1297.25	 2472.26
     34.0550	 3227.00	 3117.24	-1192.80	 2468.84
     34.0810	 3077.00	 3124.27	-1349.84	 2465.42
     34.1070	 3242.00	 3131.83	-1192.39	 2462.00
     34.1330	 3226.00	 3139.93	-1216.49	 2458.59
     34.1590	 3226.00	 3148.61	-1225.18	 2455.19
     34.1850	 3204.00	 3157.91	-1256.48	 2451.78
     34.2110	 3161.00	 3167.87	-1309.44	 2448.38
     34.2370	 3323.00	 3178.52	-1158.09	 2444.99
     34.2630	 3275.00	 3189.92	-1217.49	 2441.60
     34.2890	 3328.00	 3202.11	-1176.68	 2438.21
     34.3150	 3256.00	 3215.14	-1261.71	 2434.83
     34.3410	 3273.00	 3229.07	-1258.64	 2431.45
     34.3670	 3329.00	 3243.95	-1217.52	 2428.08
     34.3930	 3229.00	 3259.86	-1333.42	 2424.71
     34.4190	 3276.00	 3276.84	-1303.40	 2421.35
     34.4450	 3321.00	 3294.98	-1276.55	 2417.99
     34.4710	 3426.00	 3314.36	-1190.93	 2414.63
     34.4970	 3377.00	 3335.06	-1260.62	 2411.28
     34.5230	 3377.00	 3357.15	-1282.71	 2407.93
     34.5490	 3399.00	 3380.74	-1284.31	 2404.59
     34.5750	 3407.00	 3405.93	-1301.50	 2401.26
     34.6010	 3413.00	 3432.82	-1322.39	 2397.92
     34.6270	 3436.00	 3461.51	-1328.08	 2394.60
     34.6530	 3530.00	 3492.13	-1264.69	 2391.28
     34.6790	 3525.00	 3524.79	-1302.35	 2387.96
     34.7050	 3548.00	 3559.61	-1314.18	 2384.65
     34.7310	 3577.00	 3596.72	-1322.29	 2381.34
     34.7570	 3670.00	 3636.26	-1268.82	 2378.04
     34.7830	 3724.00	 3678.34	-1256.90	 2374.74
     34.8090	 3762.00	 3723.09	-1263.66	 2371.45
     34.8350	 3785.00	 3770.63	-1288.20	 2368.16
     34.8610	 3857.00	 3821.07	-1266.64	 2364.88
     34.8870	 3944.00	 3874.51	-1233.07	 2361.61
     34.9130	 4037.00	 3931.01	-1196.58	 2358.34
     34.9390	 4129.00	 3990.61	-1164.18	 2355.07
     34.9650	 4234.00	 4053.34	-1121.90	 2351.82
     34.9910	 4261.00	 4119.14	-1160.70	 2348.56
     35.0170	 4281.00	 4187.90	-1209.47	 2345.31
     35.0430	 4357.00	 4259.44	-1205.00	 2342.07
     35.0690	 4463.00	 4333.51	-1173.08	 2338.84
     35.0950	 4434.00	 4409.74	-1278.30	 2335.60
     35.1210	 4513.00	 4487.62	-1277.18	 2332.38
     35.1470	 4596.00	 4566.53	-1273.10	 2329.16
     35.1730	 4623.00	 4645.73	-1325.30	 2325.95
     35.1990	 4784.00	 4724.30	-1242.86	 2322.74
     35.2250	 4767.00	 4801.19	-1336.75	 2319.54
     35.2510	 4793.00	 4875.22	-1384.78	 2316.34
     35.2770	 4966.00	 4945.12	-1281.68	 2313.15
     35.3030	 4935.00	 5009.53	-1377.10	 2309.97
     35.3290	 4814.00	 5067.10	-1555.66	 2306.79
     35.3550	 4873.00	 5116.46	-1546.02	 2303.62
     35.3810	 5033.00	 5156.40	-1425.97	 2300.46
     35.4070	 5036.00	 5185.86	-1452.42	 2297.30
     35.4330	 5003.00	 5203.99	-1503.56	 2294.15
     35.4590	 5074.00	 5210.26	-1438.82	 2291.00
     35.4850	 5072.00	 5204.42	-1434.98	 2287.86
     35.5110	 5100.00	 5186.55	-1389.12	 2284.73
     35.5370	 5018.00	 5157.09	-1441.66	 2281.60
     35.5630	 5003.00	 5116.75	-1416.31	 2278.48
     35.5890	 4933.00	 5066.48	-1436.05	 2275.37
     35.6150	 4785.00	 5007.45	-1525.02	 2272.26
     35.6410	 4720.00	 4940.95	-1523.52	 2269.16
     35.6670	 4697.00	 4868.33	-1473.89	 2266.06
     35.6930	 4705.00	 4790.93	-1388.50	 2262.98
     35.7190	 4724.00	 4710.09	-1288.65	 2259.89
     35.7450	 4565.00	 4627.02	-1364.59	 2256.82
     35.7710	 4547.00	 4542.82	-1298.38	 2253.75
     35.7970	 4482.00	 4458.46	-1279.03	 2250.69
     35.8230	 4364.00	 4374.79	-1313.35	 2247.64
     35.8490	 4463.00	 4292.50	-1132.06	 2244.59
     35.8750	 4351.00	 4212.12	-1163.69	 2241.55
     35.9010	 4166.00	 4134.11	-1270.67	 2238.52
     35.9270	 4126.00	 4058.77	-1235.34	 2235.49
     35.9530	 4036.00	 3986.36	-1252.93	 2232.47
     35.9790	 3991.00	 3917.00	-1228.57	 2229.46
     36.0050	 3883.00	 3850.78	-1270.34	 2226.46
     36.0310	 3825.00	 3787.72	-1265.28	 2223.46
     36.0570	 3731.00	 3727.81	-1299.37	 2220.47
     36.0830	 3754.00	 3670.98	-1219.55	 2217.48
     36.1090	 3656.00	 3617.17	-1263.73	 2214.51
     36.1350	 3602.00	 3566.28	-1266.84	 2211.54
     36.1610	 3467.00	 3518.20	-1353.77	 2208.57
     36.1870	 3359.00	 3472.82	-1416.38	 2205.62
     36.2130	 3390.00	 3430.01	-1342.57	 2202.67
     36.2390	 3300.00	 3389.65	-1392.22	 2199.73
     36.2650	 3362.00	 3351.64	-1292.21	 2196.80
     36.2910	 3302.00	 3315.84	-1316.41	 2193.87
     36.3170	 3190.00	 3282.14	-1394.71	 2190.95
     36.3430	 3098.00	 3250.44	-1455.01	 2188.04
     36.3690	 3179.00	 3220.63	-1344.20	 2185.14
     36.3950	 3080.00	 3192.61	-1415.18	 2182.24
     36.4210	 3028.00	 3166.29	-1440.86	 2179.35
     36.4470	 2963.00	 3141.58	-1481.15	 2176.47
     36.4730	 2971.00	 3118.40	-1449.97	 2173.60
     36.4990	 2964.00	 3096.67	-1435.24	 2170.73
     36.5250	 3006.00	 3076.31	-1372.88	 2167.88
     36.5510	 2850.00	 3057.26	-1509.82	 2165.03
     36.5770	 2932.00	 3039.44	-1410.01	 2162.18
     36.6030	 2961.00	 3022.80	-1364.36	 2159.35
     36.6290	 2868.00	 3007.26	-1441.82	 2156.52
     36.6550	 2977.00	 2992.76	-1318.33	 2153.70
     36.6810	 2867.00	 2979.24	-1414.81	 2150.89
     36.7070	 2919.00	 2966.63	-1350.20	 2148.08
     36.7330	 2871.00	 2954.86	-1386.43	 2145.29
     36.7590	 2940.00	 2943.86	-1306.43	 2142.50
     36.7850	 2882.00	 2933.55	-1354.11	 2139.72
     36.8110	 2923.00	 2923.83	-1303.40	 2136.94
     36.8370	 2930.00	 2914.63	-1287.20	 2134.18
     36.8630	 2877.00	 2905.84	-1331.41	 2131.42
     36.8890	 2905.00	 2897.37	-1294.94	 2128.67
     36.9150	 3023.00	 2889.11	-1168.67	 2125.93
     36.9410	 2993.00	 2880.94	-1190.50	 2123.20
     36.9670	 2933.00	 2872.77	-1242.34	 2120.47
     36.9930	 2845.00	 2864.50	-1322.06	 2117.75
     37.0190	 2896.00	 2856.02	-1262.59	 2115.05
     37.0450	 2869.00	 2847.27	-1280.84	 2112.34
     37.0710	 2911.00	 2838.18	-1229.74	 2109.65
     37.0970	 2897.00	 2828.69	-1234.26	 2106.96
     37.1230	 2850.00	 2818.79	-1271.36	 2104.29
     37.1490	 2768.00	 2808.47	-1343.03	 2101.62
     37.1750	 2809.00	 2797.74	-1291.30	 2098.96
     37.2010	 2840.00	 2786.63	-1249.19	 2096.30
     37.2270	 2841.00	 2775.18	-1236.75	 2093.66
     37.2530	 2757.00	 2763.46	-1309.03	 2091.02
     37.2790	 2698.00	 2751.53	-1356.10	 2088.39
     37.3050	 2661.00	 2739.47	-1381.03	 2085.77
     37.3310	 2739.00	 2727.33	-1290.89	 2083.16
     37.3570	 2734.00	 2715.19	-1283.75	 2080.56
     37.3830	 2701.00	 2703.11	-1304.67	 2077.96
     37.4090	 2666.00	 2691.14	-1327.71	 2075.37
     37.4350	 2606.00	 2679.34	-1375.91	 2072.79
     37.4610	 2616.00	 2667.75	-1354.31	 2070.22
     37.4870	 2622.00	 2656.40	-1336.96	 2067.66
     37.5130	 2589.00	 2645.31	-1358.88	 2065.11
     37.5390	 2589.00	 2634.50	-1348.07	 2062.56
     37.5650	 2560.00	 2623.99	-1366.55	 2060.02
     37.5910	 2498.00	 2613.78	-1418.34	 2057.49
     37.6170	 2518.00	 2603.87	-1388.44	 2054.97
     37.6430	 2525.00	 2594.27	-1371.84	 2052.46
     37.6690	 2502.00	 2584.97	-1385.53	 2049.95
     37.6950	 2465.00	 2575.97	-1413.53	 2047.46
     37.7210	 2431.00	 2567.25	-1438.81	 2044.97
     37.7470	 2427.00	 2558.81	-1434.37	 2042.49
     37.7730	 2416.00	 2550.63	-1437.20	 2040.02
     37.7990	 2426.00	 2542.72	-1419.28	 2037.55
     37.8250	 2473.00	 2535.05	-1364.62	 2035.10
     37.8510	 2455.00	 2527.62	-1375.19	 2032.65
     37.8770	 2372.00	 2520.42	-1450.98	 2030.22
     37.9030	 2320.00	 2513.43	-1495.99	 2027.79
     37.9290	 2350.00	 2506.65	-1459.21	 2025.36
     37.9550	 2390.00	 2500.06	-1412.62	 2022.95
     37.9810	 2339.00	 2493.65	-1457.22	 2020.55
     38.0070	 2349.00	 2487.43	-1440.99	 2018.15
     38.0330	 2344.00	 2481.37	-1439.93	 2015.77
     38.0590	 2253.00	 2475.47	-1525.04	 2013.39
     38.0850	 2243.00	 2469.72	-1529.29	 2011.02
     38.1110	 2294.00	 2464.12	-1472.69	 2008.65
     38.1370	 2335.00	 2458.66	-1426.22	 2006.30
     38.1630	 2332.00	 2453.32	-1423.89	 2003.96
     38.1890	 2285.00	 2448.12	-1465.68	 2001.62
     38.2150	 2296.00	 2443.03	-1449.59	 1999.29
     38.2410	 2305.00	 2438.05	-1435.62	 1996.97
     38.2670	 2288.00	 2433.18	-1447.75	 1994.66
     38.2930	 2304.00	 2428.42	-1426.98	 1992.36
     38.3190	 2336.00	 2423.75	-1390.32	 1990.06
     38.3450	 2319.00	 2419.18	-1402.75	 1987.78
     38.3710	 2304.00	 2414.70	-1413.27	 1985.50
     38.3970	 2315.00	 2410.31	-1397.88	 1983.23
     38.4230	 2321.00	 2406.00	-1387.57	 1980.97
     38.4490	 2306.00	 2401.77	-1398.34	 1978.72
     38.4750	 2228.00	 2397.62	-1472.18	 1976.47
     38.5010	 2284.00	 2393.54	-1412.10	 1974.24
     38.5270	 2271.00	 2389.53	-1421.10	 1972.01
     38.5530	 2368.00	 2385.59	-1320.15	 1969.79
     38.5790	 2294.00	 2381.72	-1390.28	 1967.58
     38.6050	 2238.00	 2377.90	-1442.47	 1965.38
     38.6310	 2225.00	 2374.15	-1451.72	 1963.19
     38.6570	 2231.00	 2370.46	-1442.03	 1961.01
     38.6830	 2276.00	 2366.83	-1393.39	 1958.83
     38.7090	 2288.00	 2363.25	-1377.81	 1956.66
     38.7350	 2189.00	 2359.72	-1473.29	 1954.50
     38.7610	 2222.00	 2356.25	-1436.81	 1952.35
     38.7870	 2333.00	 2352.82	-1322.39	 1950.21
     38.8130	 2270.00	 2349.45	-1382.01	 1948.08
     38.8390	 2323.00	 2346.12	-1325.68	 1945.95
     38.8650	 2220.00	 2342.83	-1425.40	 1943.84
     38.8910	 2290.00	 2339.60	-1352.16	 1941.73
     38.9170	 2253.00	 2336.40	-1385.96	 1939.63
     38.9430	 2236.00	 2333.25	-1399.81	 1937.54
     38.9690	 2145.00	 2330.13	-1487.70	 1935.45
     38.9950	 2281.00	 2327.06	-1348.63	 1933.38
     39.0210	 2265.00	 2324.03	-1361.59	 1931.31
     39.0470	 2255.00	 2321.03	-1368.60	 1929.25
     39.0730	 2247.00	 2318.08	-1373.64	 1927.20
     39.0990	 2271.00	 2315.15	-1346.72	 1925.16
     39.1250	 2299.00	 2312.27	-1315.83	 1923.13
     39.1510	 2308.00	 2309.42	-1303.98	 1921.10
     39.1770	 2230.00	 2306.60	-1379.16	 1919.09
     39.2030	 2193.00	 2303.82	-1413.38	 1917.08
     39.2290	 2206.00	 2301.06	-1397.63	 1915.08
     39.2550	 2191.00	 2298.34	-1409.91	 1913.09
     39.2810	 2324.00	 2295.66	-1274.22	 1911.10
     39.3070	 2201.00	 2293.00	-1394.56	 1909.13
     39.3330	 2198.00	 2290.37	-1394.94	 1907.16
     39.3590	 2260.00	 2287.79	-1330.35	 1905.21
     39.3850	 2261.00	 2285.22	-1326.78	 1903.25
     39.4110	 2265.00	 2282.68	-1320.24	 1901.31
     39.4370	 2248.00	 2280.17	-1334.73	 1899.38
     39.4630	 2254.00	 2277.69	-1326.26	 1897.45
     39.4890	 2268.00	 2275.24	-1309.80	 1895.54
     39.5150	 2253.00	 2272.81	-1322.38	 1893.63
     39.5410	 2204.00	 2270.41	-1368.97	 1891.73
     39.5670	 2222.00	 2268.04	-1348.60	 1889.84
     39.5930	 2209.00	 2265.69	-1359.25	 1887.95
     39.6190	 2189.00	 2263.37	-1376.94	 1886.08
     39.6450	 2180.00	 2261.07	-1383.64	 1884.21
     39.6710	 2156.00	 2258.80	-1405.37	 1882.35
     39.6970	 2148.00	 2256.56	-1411.13	 1880.50
     39.7230	 2197.00	 2254.34	-1359.91	 1878.65
     39.7490	 2207.00	 2252.15	-1347.71	 1876.82
     39.7750	 2190.00	 2249.98	-1362.54	 1874.99
     39.8010	 2162.00	 2247.83	-1388.40	 1873.17
     39.8270	 2218.00	 2245.71	-1330.28	 1871.36
     39.8530	 2226.00	 2243.62	-1320.18	 1869.55
     39.8790	 2160.00	 2241.54	-1384.11	 1867.76
     39.9050	 2158.00	 2239.50	-1384.06	 1865.97
     39.9310	 2214.00	 2237.47	-1326.04	 1864.19
     39.9570	 2219.00	 2235.47	-1319.04	 1862.42
     39.9830	 2246.00	 2233.50	-1290.06	 1860.66
     40.0090	 2190.00	 2231.54	-1344.11	 1858.90
     40.0350	 2179.00	 2229.61	-1353.18	 1857.15
     40.0610	 2208.00	 2227.71	-1322.27	 1855.41
     40.0870	 2193.00	 2225.83	-1335.39	 1853.68
     40.1130	 2153.00	 2223.97	-1373.53	 1851.96
     40.1390	 2232.00	 2222.13	-1292.70	 1850.24
     40.1650	 2257.00	 2220.32	-1265.89	 1848.53
     40.1910	 2246.00	 2218.54	-1275.10	 1846.83
     40.2170	 2219.00	 2216.77	-1300.34	 1845.14
     40.2430	 2137.00	 2215.04	-1380.60	 1843.46
     40.2690	 2192.00	 2213.32	-1323.89	 1841.78
     40.2950	 2186.00	 2211.63	-1328.20	 1840.11
     40.3210	 2165.00	 2209.97	-1347.53	 1838.45
     40.3470	 2214.00	 2208.33	-1296.89	 1836.79
     40.3730	 2236.00	 2206.71	-1273.28	 1835.15
     40.3990	 2234.00	 2205.12	-1273.69	 1833.51
     40.4250	 2203.00	 2203.56	-1303.12	 1831.88
     40.4510	 2192.00	 2202.02	-1312.59	 1830.26
     40.4770	 2228.00	 2200.51	-1275.07	 1828.64
     40.5030	 2217.00	 2199.02	-1284.59	 1827.03
     40.5290	 2172.00	 2197.56	-1328.13	 1825.43
     40.5550	 2209.00	 2196.13	-1289.70	 1823.84
     40.5810	 2204.00	 2194.73	-1293.29	 1822.25
     40.6070	 2194.00	 2193.35	-1301.91	 1820.68
     40.6330	 2230.00	 2192.00	-1264.56	 1819.11
     40.6590	 2236.00	 2190.68	-1257.24	 1817.54
     40.6850	 2184.00	 2189.39	-1307.95	 1815.99
     40.7110	 2188.00	 2188.13	-1302.69	 1814.44
     40.7370	 2204.00	 2186.90	-1285.46	 1812.90
     40.7630	 2222.00	 2185.70	-1266.26	 1811.36
     40.7890	 2203.00	 2184.53	-1284.09	 1809.84
     40.8150	 2197.00	 2183.39	-1288.96	 1808.32
     40.8410	 2232.00	 2182.29	-1252.86	 1806.81
     40.8670	 2256.00	 2181.22	-1227.79	 1805.31
     40.8930	 2229.00	 2180.19	-1253.76	 1803.81
     40.9190	 2178.00	 2179.19	-1303.76	 1802.32
     40.9450	 2215.00	 2178.23	-1265.80	 1800.84
     40.9710	 2251.00	 2177.31	-1228.88	 1799.36
     40.9970	 2289.00	 2176.43	-1189.99	 1797.89
     41.0230	 2310.00	 2175.58	-1168.15	 1796.43
     41.0490	 2266.00	 2174.78	-1211.35	 1794.98
     41.0750	 2190.00	 2174.02	-1286.59	 1793.53
     41.1010	 2304.00	 2173.31	-1171.87	 1792.09
     41.1270	 2178.00	 2172.64	-1297.20	 1790.66
     41.1530	 2204.00	 2172.01	-1270.58	 1789.24
     41.1790	 2221.00	 2171.44	-1253.00	 1787.82
     41.2050	 2202.00	 2170.91	-1271.48	 1786.41
     41.2310	 2256.00	 2170.44	-1217.01	 1785.00
     41.2570	 2220.00	 2170.03	-1252.59	 1783.60
     41.2830	 2151.00	 2169.66	-1321.23	 1782.21
     41.3090	 2184.00	 2169.36	-1287.93	 1780.83
     41.3350	 2232.00	 2169.12	-1239.69	 1779.45
     41.3610	 2228.00	 2168.95	-1243.51	 1778.08
     41.3870	 2254.00	 2168.83	-1217.40	 1776.72
     41.4130	 2196.00	 2168.79	-1275.36	 1775.36
     41.4390	 2151.00	 2168.82	-1320.39	 1774.01
     41.4650	 2228.00	 2168.93	-1243.50	 1772.67
     41.4910	 2296.00	 2169.12	-1175.68	 1771.33
     41.5170	 2270.00	 2169.39	-1201.95	 1770.01
     41.5430	 2257.00	 2169.75	-1215.31	 1768.68
     41.5690	 2212.00	 2170.19	-1260.76	 1767.37
     41.5950	 2192.00	 2170.74	-1281.30	 1766.06
     41.6210	 2268.00	 2171.38	-1205.95	 1764.75
     41.6470	 2226.00	 2172.14	-1248.70	 1763.46
     41.6730	 2299.00	 2173.00	-1176.57	 1762.17
     41.6990	 2151.00	 2173.98	-1325.55	 1760.88
     41.7250	 2306.00	 2175.09	-1171.66	 1759.61
     41.7510	 2209.00	 2176.33	-1269.89	 1758.33
     41.7770	 2252.00	 2177.71	-1228.27	 1757.07
     41.8030	 2217.00	 2179.23	-1264.80	 1755.81
     41.8290	 2157.00	 2180.91	-1326.48	 1754.56
     41.8550	 2277.00	 2182.76	-1208.32	 1753.32
     41.8810	 2195.00	 2184.78	-1292.34	 1752.08
     41.9070	 2238.00	 2186.98	-1251.55	 1750.84
     41.9330	 2213.00	 2189.38	-1278.95	 1749.62
     41.9590	 2137.00	 2191.99	-1357.56	 1748.40
     41.9850	 2169.00	 2194.82	-1328.39	 1747.18
     42.0110	 2257.00	 2197.89	-1243.45	 1745.98
     42.0370	 2204.00	 2201.20	-1299.77	 1744.77
     42.0630	 2203.00	 2204.78	-1304.35	 1743.58
     42.0890	 2231.00	 2208.64	-1280.21	 1742.39
     42.1150	 2258.00	 2212.81	-1257.37	 1741.20
     42.1410	 2183.00	 2217.29	-1336.85	 1740.03
     42.1670	 2166.00	 2222.11	-1358.67	 1738.85
     42.1930	 2177.00	 2227.29	-1352.85	 1737.69
     42.2190	 2181.00	 2232.85	-1354.42	 1736.53
     42.2450	 2207.00	 2238.82	-1334.39	 1735.38
     42.2710	 2264.00	 2245.22	-1283.79	 1734.23
     42.2970	 2183.00	 2252.08	-1371.65	 1733.09
     42.3230	 2256.00	 2259.42	-1305.99	 1731.95
     42.3490	 2249.00	 2267.27	-1320.84	 1730.82
     42.3750	 2248.00	 2275.67	-1330.23	 1729.69
     42.4010	 2280.00	 2284.62	-1307.19	 1728.57
     42.4270	 2352.00	 2294.17	-1244.73	 1727.46
     42.4530	 2355.00	 2304.34	-1251.90	 1726.35
     42.4790	 2345.00	 2315.14	-1272.71	 1725.25
     42.5050	 2379.00	 2326.61	-1250.18	 1724.15
     42.5310	 2437.00	 2338.76	-1204.33	 1723.06
     42.5570	 2428.00	 2351.60	-1226.16	 1721.98
     42.5830	 2439.00	 2365.12	-1228.69	 1720.90
     42.6090	 2503.00	 2379.33	-1178.90	 1719.82
     42.6350	 2529.00	 2394.21	-1167.77	 1718.75
     42.6610	 2590.00	 2409.71	-1122.27	 1717.69
     42.6870	 2620.00	 2425.78	-1108.35	 1716.63
     42.7130	 2635.00	 2442.36	-1109.93	 1715.58
     42.7390	 2668.00	 2459.34	-1093.91	 1714.53
     42.7650	 2757.00	 2476.60	-1022.17	 1713.49
     42.7910	 2744.00	 2493.99	-1052.56	 1712.45
     42.8170	 2760.00	 2511.33	-1053.89	 1711.42
     42.8430	 2782.00	 2528.39	-1048.95	 1710.39
     42.8690	 2750.00	 2544.94	-1097.51	 1709.37
     42.8950	 2800.00	 2560.72	-1063.29	 1708.35
     42.9210	 2845.00	 2575.45	-1033.01	 1707.34
     42.9470	 2825.00	 2588.83	-1066.39	 1706.34
     42.9730	 2860.00	 2600.57	-1043.13	 1705.34
     42.9990	 2947.00	 2610.40	 -965.97	 1704.34
     43.0250	 2898.00	 2618.08	-1022.65	 1703.35
     43.0510	 2852.00	 2623.40	-1073.96	 1702.36
     43.0770	 2924.00	 2626.19	-1004.76	 1701.38
     43.1030	 2912.00	 2626.38	-1016.94	 1700.41
     43.1290	 2863.00	 2623.93	-1063.49	 1699.43
     43.1550	 2832.00	 2618.87	-1089.43	 1698.47
     43.1810	 2802.00	 2611.32	-1111.88	 1697.50
     43.2070	 2811.00	 2601.43	-1092.99	 1696.55
     43.2330	 2836.00	 2589.41	-1055.97	 1695.60
     43.2590	 2791.00	 2575.51	-1087.08	 1694.65
     43.2850	 2747.00	 2560.01	-1115.57	 1693.70
     43.3110	 2707.00	 2543.18	-1138.75	 1692.77
     43.3370	 2628.00	 2525.32	-1199.89	 1691.83
     43.3630	 2704.00	 2506.70	-1105.27	 1690.90
     43.3890	 2694.00	 2487.58	-1096.14	 1689.98
     43.4150	 2658.00	 2468.19	-1112.76	 1689.06
     43.4410	 2555.00	 2448.75	-1196.31	 1688.14
     43.4670	 2514.00	 2429.43	-1217.99	 1687.23
     43.4930	 2506.00	 2410.38	-1206.95	 1686.32
     43.5190	 2510.00	 2391.73	-1184.30	 1685.42
     43.5450	 2477.00	 2373.57	-1199.14	 1684.52
     43.5710	 2445.00	 2355.99	-1213.56	 1683.63
     43.5970	 2427.00	 2339.02	-1214.59	 1682.74
     43.6230	 2410.00	 2322.71	-1215.27	 1681.86
     43.6490	 2368.00	 2307.07	-1241.64	 1680.97
     43.6750	 2271.00	 2292.12	-1323.69	 1680.10
     43.7010	 2232.00	 2277.85	-1348.42	 1679.23
     43.7270	 2261.00	 2264.25	-1305.82	 1678.36
     43.7530	 2209.00	 2251.31	-1344.88	 1677.49
     43.7790	 2261.00	 2239.01	-1280.58	 1676.63
     43.8050	 2266.00	 2227.32	-1263.89	 1675.78
     43.8310	 2285.00	 2216.22	-1233.79	 1674.92
     43.8570	 2200.00	 2205.68	-1308.25	 1674.08
     43.8830	 2132.00	 2195.68	-1366.24	 1673.23
     43.9090	 2180.00	 2186.18	-1308.75	 1672.39
     43.9350	 2123.00	 2177.17	-1356.73	 1671.56
     43.9610	 2183.00	 2168.60	-1288.17	 1670.72
     43.9870	 2115.00	 2160.47	-1348.04	 1669.89
     44.0130	 2079.00	 2152.74	-1376.30	 1669.07
     44.0390	 2109.00	 2145.39	-1338.95	 1668.25
     44.0650	 2066.00	 2138.39	-1374.96	 1667.43
     44.0910	 2068.00	 2131.74	-1366.30	 1666.62
     44.1170	 2068.00	 2125.40	-1359.96	 1665.81
     44.1430	 2046.00	 2119.35	-1375.91	 1665.00
     44.1690	 2000.00	 2113.58	-1416.15	 1664.20
     44.1950	 2077.00	 2108.08	-1333.64	 1663.40
     44.2210	 2036.00	 2102.82	-1369.39	 1662.60
     44.2470	 2069.00	 2097.79	-1331.36	 1661.81
     44.2730	 1996.00	 2092.98	-1399.55	 1661.02
     44.2990	 2077.00	 2088.38	-1313.94	 1660.24
     44.3250	 2022.00	 2083.97	-1364.53	 1659.46
     44.3510	 2052.00	 2079.73	-1330.30	 1658.68
     44.3770	 2059.00	 2075.67	-1319.24	 1657.90
     44.4030	 2037.00	 2071.77	-1337.34	 1657.13
     44.4290	 2091.00	 2068.02	-1279.59	 1656.36
     44.4550	 2061.00	 2064.42	-1305.98	 1655.60
     44.4810	 1996.00	 2060.95	-1367.51	 1654.84
     44.5070	 2024.00	 2057.60	-1336.17	 1654.08
     44.5330	 2031.00	 2054.38	-1325.94	 1653.32
     44.5590	 2047.00	 2051.26	-1306.83	 1652.57
     44.5850	 2004.00	 2048.26	-1346.83	 1651.82
     44.6110	 2035.00	 2045.36	-1312.92	 1651.08
     44.6370	 2001.00	 2042.55	-1344.12	 1650.33
     44.6630	 2051.00	 2039.84	-1291.40	 1649.59
     44.6890	 2005.00	 2037.21	-1334.77	 1648.86
     44.7150	 2027.00	 2034.66	-1310.23	 1648.12
     44.7410	 2153.00	 2032.19	-1181.76	 1647.39
     44.7670	 2130.00	 2029.80	-1202.36	 1646.67
     44.7930	 1965.00	 2027.47	-1365.04	 1645.94
     44.8190	 2077.00	 2025.21	-1250.78	 1645.22
     44.8450	 2017.00	 2023.02	-1308.59	 1644.50
     44.8710	 2066.00	 2020.89	-1257.45	 1643.78
     44.8970	 2017.00	 2018.81	-1304.38	 1643.07
     44.9230	 2026.00	 2016.79	-1293.36	 1642.36
     44.9490	 2065.00	 2014.82	-1252.39	 1641.65
     44.9750	 2084.00	 2012.91	-1231.47	 1640.95
     45.0010	 1992.00	 2011.04	-1321.60	 1640.24
     45.0270	 2000.00	 2009.22	-1311.78	 1639.54
     45.0530	 2007.00	 2007.44	-1303.00	 1638.85
     45.0790	 2016.00	 2005.70	-1292.26	 1638.15
     45.1050	 1999.00	 2004.00	-1307.57	 1637.46
     45.1310	 1992.00	 2002.35	-1312.91	 1636.77
     45.1570	 2039.00	 2000.73	-1264.29	 1636.08
     45.1830	 2016.00	 1999.14	-1285.71	 1635.40
     45.2090	 1999.00	 1997.59	-1301.16	 1634.71
     45.2350	 1986.00	 1996.08	-1312.64	 1634.03
     45.2610	 1999.00	 1994.59	-1298.16	 1633.36
     45.2870	 2023.00	 1993.14	-1272.70	 1632.68
     45.3130	 2025.00	 1991.71	-1269.28	 1632.01
     45.3390	 2030.00	 1990.32	-1262.88	 1631.34
     45.3650	 2016.00	 1988.95	-1275.51	 1630.67
     45.3910	 1964.00	 1987.61	-1326.17	 1630.00
     45.4170	 1987.00	 1986.29	-1301.86	 1629.34
     45.4430	 2054.00	 1985.00	-1233.57	 1628.68
     45.4690	 2032.00	 1983.73	-1254.30	 1628.02
     45.4950	 2012.00	 1982.49	-1273.06	 1627.36
     45.5210	 1984.00	 1981.27	-1299.83	 1626.71
     45.5470	 2001.00	 1980.07	-1281.64	 1626.05
     45.5730	 2026.00	 1978.89	-1255.46	 1625.40
     45.5990	 2002.00	 1977.74	-1278.30	 1624.75
     45.6250	 1971.00	 1976.60	-1308.17	 1624.11
     45.6510	 1961.00	 1975.49	-1317.05	 1623.46
     45.6770	 2006.00	 1974.39	-1270.96	 1622.82
     45.7030	 2007.00	 1973.31	-1268.88	 1622.18
     45.7290	 1973.00	 1972.26	-1301.82	 1621.54
     45.7550	 1976.00	 1971.22	-1297.78	 1620.90
     45.7810	 1975.00	 1970.19	-1297.76	 1620.27
     45.8070	 1991.00	 1969.19	-1280.76	 1619.63
     45.8330	 2001.00	 1968.20	-1269.77	 1619.00
     45.8590	 1980.00	 1967.23	-1289.80	 1618.37
     45.8850	 2000.00	 1966.28	-1268.85	 1617.74
     45.9110	 1995.00	 1965.35	-1272.91	 1617.12
     45.9370	 2004.00	 1964.43	-1262.99	 1616.49
     45.9630	 1992.00	 1963.53	-1274.09	 1615.87
     45.9890	 1944.00	 1962.64	-1321.21	 1615.25
     46.0150	 2014.00	 1961.77	-1250.34	 1614.63
     46.0410	 2029.00	 1960.92	-1234.49	 1614.01
     46.0670	 1999.00	 1960.09	-1263.65	 1613.39
     46.0930	 1980.00	 1959.27	-1281.83	 1612.78
     46.1190	 1981.00	 1958.47	-1280.03	 1612.17
     46.1450	 1964.00	 1957.68	-1296.25	 1611.55
     46.1710	 1978.00	 1956.92	-1281.48	 1610.94
     46.1970	 1980.00	 1956.17	-1278.73	 1610.33
     46.2230	 1933.00	 1955.44	-1325.00	 1609.73
     46.2490	 1966.00	 1954.73	-1291.29	 1609.12
     46.2750	 1955.00	 1954.03	-1301.60	 1608.52
     46.3010	 1861.00	 1953.36	-1394.92	 1607.91
     46.3270	 1883.00	 1952.70	-1372.27	 1607.31
     46.3530	 1880.00	 1952.07	-1374.63	 1606.71
     46.3790	 1971.00	 1951.45	-1283.02	 1606.11
     46.4050	 1988.00	 1950.86	-1265.42	 1605.51
     46.4310	 1970.00	 1950.29	-1282.85	 1604.92
     46.4570	 1955.00	 1949.74	-1297.30	 1604.32
     46.4830	 1970.00	 1949.21	-1281.78	 1603.73
     46.5090	 1873.00	 1948.71	-1378.28	 1603.13
     46.5350	 1940.00	 1948.23	-1310.80	 1602.54
     46.5610	 2017.00	 1947.78	-1233.34	 1601.95
     46.5870	 1995.00	 1947.35	-1254.91	 1601.36
     46.6130	 1883.00	 1946.94	-1366.51	 1600.77
     46.6390	 1939.00	 1946.56	-1310.13	 1600.19
     46.6650	 2007.00	 1946.21	-1241.78	 1599.60
     46.6910	 1964.00	 1945.88	-1284.45	 1599.01
     46.7170	 1883.00	 1945.58	-1365.14	 1598.43
     46.7430	 1906.00	 1945.30	-1341.86	 1597.85
     46.7690	 1879.00	 1945.04	-1368.60	 1597.27
     46.7950	 1959.00	 1944.80	-1288.36	 1596.68
     46.8210	 1947.00	 1944.57	-1300.14	 1596.10
     46.8470	 1981.00	 1944.36	-1265.93	 1595.52
     46.8730	 1954.00	 1944.16	-1292.72	 1594.95
     46.8990	 1913.00	 1943.96	-1333.52	 1594.37
     46.9250	 1944.00	 1943.76	-1302.32	 1593.79
     46.9510	 1923.00	 1943.55	-1323.11	 1593.22
     46.9770	 1982.00	 1943.32	-1263.88	 1592.64
     47.0030	 1966.00	 1943.06	-1279.63	 1592.07
     47.0290	 1896.00	 1942.78	-1349.34	 1591.50
     47.0550	 1929.00	 1942.45	-1316.01	 1590.92
     47.0810	 1941.00	 1942.07	-1303.64	 1590.35
     47.1070	 1953.00	 1941.64	-1291.21	 1589.78
     47.1330	 1954.00	 1941.15	-1289.71	 1589.21
     47.1590	 1956.00	 1940.58	-1287.15	 1588.64
     47.1850	 1912.00	 1939.95	-1330.52	 1588.07
     47.2110	 1986.00	 1939.25	-1255.81	 1587.50
     47.2370	 1955.00	 1938.47	-1286.04	 1586.94
     47.2630	 1905.00	 1937.63	-1335.19	 1586.37
     47.2890	 1931.00	 1936.72	-1308.28	 1585.80
     47.3150	 1927.00	 1935.75	-1311.31	 1585.24
     47.3410	 1873.00	 1934.72	-1364.29	 1584.67
     47.3670	 1899.00	 1933.66	-1337.22	 1584.11
     47.3930	 1866.00	 1932.55	-1369.11	 1583.55
     47.4190	 1879.00	 1931.41	-1354.98	 1582.98
     47.4450	 1889.00	 1930.25	-1343.82	 1582.42
     47.4710	 1893.00	 1929.08	-1338.64	 1581.86
     47.4970	 1912.00	 1927.89	-1318.46	 1581.30
     47.5230	 1870.00	 1926.71	-1359.27	 1580.73
     47.5490	 1874.00	 1925.52	-1354.09	 1580.17
     47.5750	 1947.00	 1924.35	-1279.91	 1579.61
     47.6010	 1962.00	 1923.19	-1263.75	 1579.05
     47.6270	 1949.00	 1922.04	-1275.60	 1578.49
     47.6530	 1962.00	 1920.91	-1261.47	 1577.94
     47.6790	 1891.00	 1919.80	-1331.36	 1577.38
     47.7050	 1886.00	 1918.70	-1335.27	 1576.82
     47.7310	 1879.00	 1917.63	-1341.20	 1576.26
     47.7570	 1934.00	 1916.59	-1285.15	 1575.70
     47.7830	 1940.00	 1915.56	-1278.12	 1575.15
     47.8090	 1918.00	 1914.55	-1299.12	 1574.59
     47.8350	 1956.00	 1913.57	-1260.14	 1574.03
     47.8610	 1962.00	 1912.61	-1253.17	 1573.48
     47.8870	 1905.00	 1911.67	-1309.23	 1572.92
     47.9130	 1874.00	 1910.74	-1339.31	 1572.37
     47.9390	 1865.00	 1909.84	-1347.40	 1571.81
     47.9650	 1890.00	 1908.95	-1321.52	 1571.26
     47.9910	 1910.00	 1908.08	-1300.65	 1570.70
     48.0170	 1912.00	 1907.23	-1297.79	 1570.15
     48.0430	 1931.00	 1906.39	-1277.96	 1569.59
     48.0690	 1934.00	 1905.57	-1274.13	 1569.04
     48.0950	 1868.00	 1904.76	-1339.32	 1568.48
     48.1210	 1839.00	 1903.96	-1367.53	 1567.93
     48.1470	 1900.00	 1903.18	-1305.75	 1567.38
     48.1730	 1953.00	 1902.41	-1251.98	 1566.82
     48.1990	 1970.00	 1901.65	-1234.22	 1566.27
     48.2250	 1954.00	 1900.90	-1249.47	 1565.72
     48.2510	 1933.00	 1900.16	-1269.73	 1565.16
     48.2770	 1948.00	 1899.43	-1254.00	 1564.61
     48.3030	 1934.00	 1898.71	-1267.28	 1564.06
     48.3290	 1885.00	 1898.00	-1315.57	 1563.51
     48.3550	 1851.00	 1897.30	-1348.87	 1562.95
     48.3810	 1849.00	 1896.61	-1350.17	 1562.40
     48.4070	 1877.00	 1895.92	-1321.48	 1561.85
     48.4330	 1895.00	 1895.24	-1302.80	 1561.30
     48.4590	 1886.00	 1894.56	-1311.13	 1560.74
     48.4850	 1844.00	 1893.90	-1352.46	 1560.19
     48.5110	 1841.00	 1893.24	-1354.80	 1559.64
     48.5370	 1847.00	 1892.58	-1348.14	 1559.09
     48.5630	 1874.00	 1891.93	-1320.50	 1558.54
     48.5890	 1930.00	 1891.29	-1263.85	 1557.98
     48.6150	 1879.00	 1890.65	-1314.21	 1557.43
     48.6410	 1841.00	 1890.01	-1351.58	 1556.88
     48.6670	 1880.00	 1889.38	-1311.95	 1556.33
     48.6930	 1843.00	 1888.76	-1348.32	 1555.78
     48.7190	 1847.00	 1888.14	-1343.70	 1555.22
     48.7450	 1844.00	 1887.52	-1346.09	 1554.67
     48.7710	 1845.00	 1886.91	-1344.48	 1554.12
     48.7970	 1877.00	 1886.30	-1311.87	 1553.57
     48.8230	 1879.00	 1885.70	-1309.26	 1553.01
     48.8490	 1922.00	 1885.10	-1265.66	 1552.46
     48.8750	 1861.00	 1884.50	-1326.07	 1551.91
     48.9010	 1868.00	 1883.91	-1318.47	 1551.36
     48.9270	 1908.00	 1883.32	-1277.88	 1550.80
     48.9530	 1897.00	 1882.73	-1288.30	 1550.25
     48.9790	 1975.00	 1882.15	-1209.71	 1549.70
     49.0050	 1852.00	 1881.57	-1332.13	 1549.15
     49.0310	 1886.00	 1880.99	-1297.56	 1548.59
     49.0570	 1884.00	 1880.42	-1298.98	 1548.04
     49.0830	 1798.00	 1879.85	-1384.41	 1547.49
     49.1090	 1898.00	 1879.28	-1283.84	 1546.93
     49.1350	 1883.00	 1878.71	-1298.28	 1546.38
     49.1610	 1899.00	 1878.15	-1281.72	 1545.83
     49.1870	 1847.00	 1877.59	-1333.16	 1545.27
     49.2130	 1846.00	 1877.03	-1333.60	 1544.72
     49.2390	 1807.00	 1876.48	-1372.04	 1544.17
     49.2650	 1841.00	 1875.93	-1337.49	 1543.61
     49.2910	 1820.00	 1875.38	-1357.94	 1543.06
     49.3170	 1908.00	 1874.83	-1269.40	 1542.51
     49.3430	 1853.00	 1874.29	-1323.85	 1541.95
     49.3690	 1907.00	 1873.75	-1269.31	 1541.40
     49.3950	 1762.00	 1873.21	-1413.77	 1540.84
     49.4210	 1790.00	 1872.67	-1385.23	 1540.29
     49.4470	 1846.00	 1872.14	-1328.70	 1539.73
     49.4730	 1864.00	 1871.60	-1310.17	 1539.18
     49.4990	 1823.00	 1871.07	-1350.64	 1538.62
     49.5250	 1778.00	 1870.55	-1395.11	 1538.07
     49.5510	 1802.00	 1870.02	-1370.59	 1537.51
     49.5770	 1854.00	 1869.50	-1318.07	 1536.96
     49.6030	 1956.00	 1868.98	-1215.55	 1536.40
     49.6290	 1851.00	 1868.47	-1320.03	 1535.84
     49.6550	 1855.00	 1867.95	-1315.52	 1535.29
     49.6810	 1905.00	 1867.44	-1265.00	 1534.73
     49.7070	 1861.00	 1866.93	-1308.49	 1534.18
     49.7330	 1863.00	 1866.42	-1305.99	 1533.62
     49.7590	 1821.00	 1865.92	-1347.48	 1533.06
     49.7850	 1908.00	 1865.42	-1259.98	 1532.51
     49.8110	 1834.00	 1864.92	-1333.48	 1531.95
     49.8370	 1871.00	 1864.42	-1295.99	 1531.39
     49.8630	 1818.00	 1863.93	-1348.49	 1530.84
     49.8890	 1886.00	 1863.44	-1280.00	 1530.28
     49.9150	 1843.00	 1862.95	-1322.51	 1529.72
     49.9410	 1917.00	 1862.46	-1248.03	 1529.16
     49.9670	 1939.00	 1861.98	-1225.54	 1528.61
     49.9930	 1909.00	 1861.50	-1255.06	 1528.05
     50.0190	 1880.00	 1861.02	-1283.59	 1527.49
     50.0450	 1928.00	 1860.55	-1235.11	 1526.93
     50.0710	 1863.00	 1860.08	-1299.64	 1526.37
     50.0970	 1831.00	 1859.61	-1331.17	 1525.81
     50.1230	 1892.00	 1859.14	-1269.71	 1525.26
     50.1490	 1911.00	 1858.68	-1250.25	 1524.70
     50.1750	 1917.00	 1858.22	-1243.79	 1524.14
     50.2010	 1864.00	 1857.77	-1296.33	 1523.58
     50.2270	 1844.00	 1857.32	-1315.88	 1523.02
     50.2530	 1814.00	 1856.87	-1345.43	 1522.46
     50.2790	 1851.00	 1856.42	-1307.99	 1521.90
     50.3050	 1879.00	 1855.98	-1279.55	 1521.34
     50.3310	 1843.00	 1855.54	-1315.11	 1520.78
     50.3570	 1882.00	 1855.11	-1275.67	 1520.22
     50.3830	 1943.00	 1854.68	-1214.24	 1519.66
     50.4090	 1921.00	 1854.25	-1235.82	 1519.10
     50.4350	 1854.00	 1853.83	-1302.39	 1518.54
     50.4610	 1876.00	 1853.41	-1279.98	 1517.98
     50.4870	 1860.00	 1853.00	-1295.56	 1517.42
     50.5130	 1861.00	 1852.59	-1294.15	 1516.86
     50.5390	 1891.00	 1852.18	-1263.75	 1516.30
     50.5650	 1909.00	 1851.78	-1245.35	 1515.74
     50.5910	 1866.00	 1851.39	-1287.95	 1515.18
     50.6170	 1840.00	 1851.00	-1313.56	 1514.62
     50.6430	 1875.00	 1850.61	-1278.17	 1514.06
     50.6690	 1866.00	 1850.23	-1286.79	 1513.50
     50.6950	 1849.00	 1849.85	-1303.42	 1512.94
     50.7210	 1824.00	 1849.48	-1328.05	 1512.38
     50.7470	 1807.00	 1849.12	-1344.68	 1511.82
     50.7730	 1889.00	 1848.76	-1262.32	 1511.26
     50.7990	 1929.00	 1848.41	-1221.97	 1510.70
     50.8250	 1876.00	 1848.06	-1274.63	 1510.14
     50.8510	 1874.00	 1847.72	-1276.29	 1509.58
     50.8770	 1900.00	 1847.39	-1249.95	 1509.01
     50.9030	 1935.00	 1847.06	-1214.63	 1508.45
     50.9290	 1930.00	 1846.74	-1219.31	 1507.89
     50.9550	 1895.00	 1846.43	-1253.99	 1507.33
     50.9810	 1903.00	 1846.12	-1245.69	 1506.77
     51.0070	 1873.00	 1845.83	-1275.39	 1506.21
     51.0330	 1874.00	 1845.54	-1274.10	 1505.65
     51.0590	 1907.00	 1845.26	-1240.82	 1505.09
     51.0850	 1891.00	 1844.99	-1256.55	 1504.53
     51.1110	 1863.00	 1844.72	-1284.29	 1503.97
     51.1370	 1790.00	 1844.47	-1357.03	 1503.41
     51.1630	 1766.00	 1844.23	-1380.79	 1502.85
     51.1890	 1886.00	 1843.99	-1260.56	 1502.29
     51.2150	 1886.00	 1843.77	-1260.33	 1501.73
     51.2410	 1865.00	 1843.56	-1281.12	 1501.17
     51.2670	 1849.00	 1843.35	-1296.92	 1500.61
     51.2930	 1808.00	 1843.16	-1337.73	 1500.05
     51.3190	 1802.00	 1842.99	-1343.55	 1499.49
     51.3450	 1826.00	 1842.82	-1319.39	 1498.93
     51.3710	 1866.00	 1842.67	-1279.24	 1498.37
     51.3970	 1843.00	 1842.53	-1302.10	 1497.81
     51.4230	 1895.00	 1842.41	-1249.97	 1497.26
     51.4490	 1880.00	 1842.30	-1264.86	 1496.70
     51.4750	 1864.00	 1842.21	-1280.77	 1496.14
     51.5010	 1873.00	 1842.13	-1271.69	 1495.58
     51.5270	 1862.00	 1842.07	-1282.63	 1495.02
     51.5530	 1824.00	 1842.03	-1320.59	 1494.46
     51.5790	 1856.00	 1842.00	-1288.57	 1493.91
     51.6050	 1869.00	 1842.00	-1275.56	 1493.35
     51.6310	 1830.00	 1842.02	-1314.58	 1492.79
     51.6570	 1818.00	 1842.05	-1326.62	 1492.24
     51.6830	 1856.00	 1842.11	-1288.68	 1491.68
     51.7090	 1872.00	 1842.19	-1272.76	 1491.12
     51.7350	 1879.00	 1842.30	-1265.87	 1490.57
     51.7610	 1829.00	 1842.43	-1316.00	 1490.01
     51.7870	 1844.00	 1842.59	-1301.16	 1489.46
     51.8130	 1804.00	 1842.78	-1341.35	 1488.90
     51.8390	 1794.00	 1843.00	-1351.56	 1488.35
     51.8650	 1828.00	 1843.25	-1317.81	 1487.79
     51.8910	 1852.00	 1843.53	-1294.09	 1487.24
     51.9170	 1879.00	 1843.85	-1267.41	 1486.69
     51.9430	 1877.00	 1844.20	-1269.76	 1486.14
     51.9690	 1834.00	 1844.59	-1313.15	 1485.58
     51.9950	 1802.00	 1845.02	-1345.59	 1485.03
     52.0210	 1804.00	 1845.50	-1344.06	 1484.48
     52.0470	 1902.00	 1846.02	-1246.58	 1483.93
     52.0730	 1904.00	 1846.58	-1245.15	 1483.38
     52.0990	 1891.00	 1847.20	-1258.76	 1482.83
     52.1250	 1878.00	 1847.87	-1272.43	 1482.28
     52.1510	 1767.00	 1848.60	-1384.16	 1481.73
     52.1770	 1819.00	 1849.38	-1332.95	 1481.18
     52.2030	 1804.00	 1850.23	-1348.80	 1480.63
     52.2290	 1902.00	 1851.15	-1251.71	 1480.08
     52.2550	 1921.00	 1852.14	-1233.70	 1479.54
     52.2810	 1797.00	 1853.20	-1358.76	 1478.99
     52.3070	 1786.00	 1854.34	-1370.90	 1478.44
     52.3330	 1854.00	 1855.56	-1304.13	 1477.90
     52.3590	 1857.00	 1856.88	-1302.44	 1477.35
     52.3850	 1870.00	 1858.29	-1290.85	 1476.81
     52.4110	 1825.00	 1859.80	-1337.37	 1476.27
     52.4370	 1829.00	 1861.42	-1334.98	 1475.72
     52.4630	 1882.00	 1863.15	-1283.71	 1475.18
     52.4890	 1825.00	 1865.00	-1342.57	 1474.64
     52.5150	 1860.00	 1866.98	-1309.55	 1474.10
     52.5410	 1913.00	 1869.10	-1258.66	 1473.56
     52.5670	 1877.00	 1871.36	-1296.92	 1473.02
     52.5930	 1866.00	 1873.77	-1310.33	 1472.48
     52.6190	 1834.00	 1876.34	-1344.90	 1471.94
     52.6450	 1875.00	 1879.08	-1306.64	 1471.41
     52.6710	 1929.00	 1882.00	-1255.56	 1470.87
     52.6970	 1924.00	 1885.10	-1263.67	 1470.33
     52.7230	 1820.00	 1888.41	-1370.97	 1469.80
     52.7490	 1851.00	 1891.92	-1343.49	 1469.27
     52.7750	 1886.00	 1895.65	-1312.21	 1468.73
     52.8010	 1897.00	 1899.60	-1305.17	 1468.20
     52.8270	 1924.00	 1903.79	-1282.35	 1467.67
     52.8530	 1898.00	 1908.21	-1312.78	 1467.14
     52.8790	 1934.00	 1912.88	-1281.45	 1466.61
     52.9050	 1905.00	 1917.80	-1315.36	 1466.08
     52.9310	 1889.00	 1922.96	-1336.52	 1465.55
     52.9570	 1916.00	 1928.36	-1314.93	 1465.03
     52.9830	 1891.00	 1934.01	-1345.57	 1464.50
     53.0090	 1917.00	 1939.87	-1325.44	 1463.97
     53.0350	 1909.00	 1945.94	-1339.51	 1463.45
     53.0610	 1956.00	 1952.19	-1298.76	 1462.93
     53.0870	 1924.00	 1958.59	-1337.16	 1462.41
     53.1130	 1933.00	 1965.10	-1334.66	 1461.88
     53.1390	 1973.00	 1971.66	-1301.22	 1461.36
     53.1650	 2016.00	 1978.21	-1264.78	 1460.85
     53.1910	 1972.00	 1984.70	-1315.26	 1460.33
     53.2170	 1988.00	 1991.03	-1305.59	 1459.81
     53.2430	 1989.00	 1997.12	-1310.68	 1459.30
     53.2690	 1946.00	 2002.88	-1359.44	 1458.78
     53.2950	 1948.00	 2008.21	-1362.78	 1458.27
     53.3210	 1960.00	 2013.02	-1355.59	 1457.75
     53.3470	 1991.00	 2017.22	-1328.78	 1457.24
     53.3730	 2016.00	 2020.71	-1307.27	 1456.73
     53.3990	 2071.00	 2023.42	-1254.98	 1456.22
     53.4250	 2086.00	 2025.29	-1241.85	 1455.72
     53.4510	 2002.00	 2026.27	-1326.84	 1455.21
     53.4770	 2016.00	 2026.34	-1312.91	 1454.71
     53.5030	 2017.00	 2025.50	-1311.07	 1454.20
     53.5290	 1981.00	 2023.76	-1345.33	 1453.70
     53.5550	 2001.00	 2021.16	-1322.73	 1453.20
     53.5810	 1968.00	 2017.75	-1352.31	 1452.70
     53.6070	 1999.00	 2013.59	-1317.16	 1452.20
     53.6330	 1987.00	 2008.78	-1324.34	 1451.70
     53.6590	 1928.00	 2003.39	-1377.95	 1451.21
     53.6850	 1953.00	 1997.52	-1347.08	 1450.71
     53.7110	 1960.00	 1991.26	-1333.83	 1450.22
     53.7370	 2009.00	 1984.71	-1278.28	 1449.73
     53.7630	 1971.00	 1977.96	-1309.52	 1449.24
     53.7890	 1922.00	 1971.08	-1351.64	 1448.75
     53.8150	 1909.00	 1964.15	-1357.71	 1448.26
     53.8410	 1899.00	 1957.23	-1360.80	 1447.77
     53.8670	 1903.00	 1950.39	-1349.95	 1447.29
     53.8930	 1951.00	 1943.67	-1295.23	 1446.80
     53.9190	 1974.00	 1937.10	-1265.67	 1446.32
     53.9450	 1967.00	 1930.73	-1266.29	 1445.84
     53.9710	 1951.00	 1924.57	-1276.13	 1445.36
     53.9970	 2000.00	 1918.64	-1221.20	 1444.89
     54.0230	 1934.00	 1912.95	-1281.51	 1444.41
     54.0490	 1925.00	 1907.51	-1285.07	 1443.94
     54.0750	 1988.00	 1902.32	-1216.89	 1443.46
     54.1010	 1938.00	 1897.39	-1261.96	 1442.99
     54.1270	 1908.00	 1892.71	-1287.28	 1442.52
     54.1530	 1965.00	 1888.28	-1225.84	 1442.06
     54.1790	 1952.00	 1884.08	-1234.65	 1441.59
     54.2050	 1869.00	 1880.12	-1313.69	 1441.13
     54.2310	 1909.00	 1876.38	-1269.95	 1440.66
     54.2570	 1889.00	 1872.87	-1286.43	 1440.20
     54.2830	 1894.00	 1869.55	-1278.12	 1439.74
     54.3090	 1942.00	 1866.44	-1227.01	 1439.29
     54.3350	 1843.00	 1863.52	-1323.09	 1438.83
     54.3610	 1875.00	 1860.79	-1288.35	 1438.38
     54.3870	 1920.00	 1858.22	-1240.79	 1437.92
     54.4130	 1862.00	 1855.83	-1296.39	 1437.47
     54.4390	 1801.00	 1853.59	-1355.16	 1437.03
     54.4650	 1902.00	 1851.51	-1252.07	 1436.58
     54.4910	 1899.00	 1849.57	-1253.13	 1436.13
     54.5170	 1912.00	 1847.77	-1238.33	 1435.69
     54.5430	 1881.00	 1846.10	-1267.66	 1435.25
     54.5690	 1859.00	 1844.56	-1288.12	 1434.81
     54.5950	 1825.00	 1843.14	-1320.71	 1434.37
     54.6210	 1960.00	 1841.84	-1184.41	 1433.94
     54.6470	 1908.00	 1840.66	-1235.22	 1433.50
     54.6730	 1845.00	 1839.58	-1297.14	 1433.07
     54.6990	 1797.00	 1838.61	-1344.17	 1432.64
     54.7250	 1910.00	 1837.74	-1230.31	 1432.21
     54.7510	 1877.00	 1836.98	-1262.54	 1431.79
     54.7770	 1906.00	 1836.31	-1232.87	 1431.37
     54.8030	 1839.00	 1835.73	-1299.30	 1430.94
     54.8290	 1875.00	 1835.25	-1262.81	 1430.52
     54.8550	 1918.00	 1834.86	-1219.42	 1430.11
     54.8810	 1834.00	 1834.56	-1303.12	 1429.69
     54.9070	 1879.00	 1834.35	-1257.91	 1429.28
     54.9330	 1847.00	 1834.23	-1289.79	 1428.87
     54.9590	 1856.00	 1834.19	-1280.76	 1428.46
     54.9850	 1897.00	 1834.24	-1239.81	 1428.05
     55.0110	 1896.00	 1834.38	-1240.95	 1427.64
     55.0370	 1884.00	 1834.61	-1253.17	 1427.24
     55.0630	 1870.00	 1834.92	-1267.49	 1426.84
     55.0890	 1902.00	 1835.33	-1235.89	 1426.44
     55.1150	 1890.00	 1835.82	-1248.38	 1426.04
     55.1410	 1845.00	 1836.40	-1293.97	 1425.65
     55.1670	 1858.00	 1837.08	-1281.64	 1425.26
     55.1930	 1838.00	 1837.85	-1302.41	 1424.87
     55.2190	 1889.00	 1838.71	-1252.27	 1424.48
     55.2450	 1858.00	 1839.67	-1284.24	 1424.09
     55.2710	 1925.00	 1840.73	-1218.30	 1423.71
     55.2970	 1889.00	 1841.90	-1255.47	 1423.33
     55.3230	 1819.00	 1843.17	-1326.74	 1422.95
     55.3490	 1869.00	 1844.56	-1278.12	 1422.58
     55.3750	 1894.00	 1846.05	-1254.62	 1422.20
     55.4010	 1847.00	 1847.67	-1303.23	 1421.83
     55.4270	 1824.00	 1849.40	-1327.97	 1421.46
     55.4530	 1831.00	 1851.27	-1322.83	 1421.09
     55.4790	 1827.00	 1853.26	-1328.83	 1420.73
     55.5050	 1827.00	 1855.40	-1330.96	 1420.37
     55.5310	 1882.00	 1857.68	-1278.24	 1420.01
     55.5570	 1867.00	 1860.11	-1295.67	 1419.65
     55.5830	 1824.00	 1862.69	-1341.26	 1419.29
     55.6090	 1830.00	 1865.45	-1338.01	 1418.94
     55.6350	 1869.00	 1868.38	-1301.94	 1418.59
     55.6610	 1914.00	 1871.49	-1260.05	 1418.24
     55.6870	 1918.00	 1874.79	-1259.36	 1417.90
     55.7130	 1920.00	 1878.30	-1260.86	 1417.56
     55.7390	 1901.00	 1882.02	-1283.58	 1417.21
     55.7650	 1865.00	 1885.97	-1323.53	 1416.88
     55.7910	 1858.00	 1890.15	-1334.72	 1416.54
     55.8170	 1937.00	 1894.59	-1260.15	 1416.21
     55.8430	 1962.00	 1899.29	-1239.85	 1415.88
     55.8690	 1937.00	 1904.27	-1269.84	 1415.55
     55.8950	 1888.00	 1909.55	-1324.12	 1415.22
     55.9210	 1863.00	 1915.15	-1354.72	 1414.90
     55.9470	 1865.00	 1921.08	-1358.64	 1414.58
     55.9730	 1915.00	 1927.36	-1314.93	 1414.26
     55.9990	 1946.00	 1934.02	-1290.58	 1413.95
     56.0250	 1896.00	 1941.07	-1347.63	 1413.64
     56.0510	 1899.00	 1948.54	-1352.10	 1413.33
     56.0770	 1959.00	 1956.45	-1300.01	 1413.02
     56.1030	 2017.00	 1964.83	-1250.39	 1412.71
     56.1290	 1991.00	 1973.70	-1285.27	 1412.41
     56.1550	 1957.00	 1983.10	-1328.66	 1412.11
     56.1810	 1997.00	 1993.05	-1298.61	 1411.82
     56.2070	 2008.00	 2003.57	-1298.13	 1411.52
     56.2330	 1981.00	 2014.70	-1336.26	 1411.23
     56.2590	 1968.00	 2026.46	-1361.03	 1410.94
     56.2850	 1991.00	 2038.89	-1350.45	 1410.65
     56.3110	 1993.00	 2052.00	-1361.56	 1410.37
     56.3370	 2005.00	 2065.82	-1363.39	 1410.09
     56.3630	 2051.00	 2080.38	-1331.95	 1409.81
     56.3890	 2085.00	 2095.69	-1313.25	 1409.54
     56.4150	 2048.00	 2111.75	-1366.32	 1409.26
     56.4410	 2041.00	 2128.58	-1390.15	 1408.99
     56.4670	 2022.00	 2146.17	-1426.73	 1408.73
     56.4930	 1992.00	 2164.48	-1475.05	 1408.46
     56.5190	 2075.00	 2183.51	-1411.07	 1408.20
     56.5450	 2108.00	 2203.19	-1397.76	 1407.94
     56.5710	 2126.00	 2223.46	-1400.02	 1407.69
     56.5970	 2132.00	 2244.22	-1414.79	 1407.43
     56.6230	 2086.00	 2265.37	-1481.93	 1407.18
     56.6490	 2167.00	 2286.75	-1422.32	 1406.93
     56.6750	 2148.00	 2308.20	-1462.77	 1406.69
     56.7010	 2209.00	 2329.53	-1423.09	 1406.45
     56.7270	 2206.00	 2350.49	-1447.05	 1406.21
     56.7530	 2221.00	 2370.84	-1452.41	 1405.97
     56.7790	 2220.00	 2390.31	-1472.88	 1405.74
     56.8050	 2173.00	 2408.62	-1538.18	 1405.50
     56.8310	 2230.00	 2425.46	-1498.02	 1405.28
     56.8570	 2275.00	 2440.55	-1468.11	 1405.05
     56.8830	 2256.00	 2453.60	-1500.17	 1404.83
     56.9090	 2274.00	 2464.38	-1492.94	 1404.61
     56.9350	 2314.00	 2472.66	-1461.22	 1404.39
     56.9610	 2227.00	 2478.27	-1553.83	 1404.18
     56.9870	 2265.00	 2481.09	-1518.66	 1403.96
     57.0130	 2317.00	 2481.08	-1466.64	 1403.76
     57.0390	 2264.00	 2478.23	-1516.79	 1403.55
     57.0650	 2258.00	 2472.60	-1517.16	 1403.35
     57.0910	 2243.00	 2464.31	-1523.88	 1403.15
     57.1170	 2243.00	 2453.55	-1513.11	 1402.95
     57.1430	 2277.00	 2440.51	-1466.07	 1402.76
     57.1690	 2283.00	 2425.44	-1445.01	 1402.57
     57.1950	 2226.00	 2408.62	-1485.18	 1402.38
     57.2210	 2186.00	 2390.31	-1506.88	 1402.19
     57.2470	 2242.00	 2370.81	-1431.38	 1402.01
     57.2730	 2213.00	 2350.39	-1439.95	 1401.83
     57.2990	 2282.00	 2329.32	-1349.88	 1401.65
     57.3250	 2257.00	 2307.84	-1353.40	 1401.48
     57.3510	 2195.00	 2286.17	-1393.74	 1401.31
     57.3770	 2216.00	 2264.52	-1351.08	 1401.14
     57.4030	 2212.00	 2243.06	-1333.62	 1400.97
     57.4290	 2116.00	 2221.92	-1408.49	 1400.81
     57.4550	 2137.00	 2201.25	-1366.81	 1400.65
     57.4810	 2149.00	 2181.12	-1334.68	 1400.49
     57.5070	 2117.00	 2161.61	-1347.17	 1400.34
     57.5330	 2156.00	 2142.78	-1289.34	 1400.19
     57.5590	 2076.00	 2124.66	-1351.23	 1400.04
     57.5850	 2010.00	 2107.29	-1399.85	 1399.89
     57.6110	 2061.00	 2090.66	-1332.23	 1399.75
     57.6370	 2059.00	 2074.78	-1318.35	 1399.61
     57.6630	 1984.00	 2059.65	-1378.21	 1399.48
     57.6890	 2007.00	 2045.24	-1340.80	 1399.34
     57.7150	 1993.00	 2031.54	-1341.11	 1399.21
     57.7410	 1977.00	 2018.54	-1344.10	 1399.08
     57.7670	 2017.00	 2006.19	-1291.76	 1398.96
     57.7930	 1962.00	 1994.48	-1335.05	 1398.84
     57.8190	 1955.00	 1983.38	-1330.95	 1398.72
     57.8450	 1940.00	 1972.87	-1335.43	 1398.60
     57.8710	 1970.00	 1962.90	-1295.47	 1398.49
     57.8970	 1970.00	 1953.46	-1286.03	 1398.38
     57.9230	 1904.00	 1944.52	-1343.09	 1398.27
     57.9490	 1852.00	 1936.05	-1386.62	 1398.16
     57.9750	 1871.00	 1928.03	-1359.59	 1398.06
     58.0010	 1872.00	 1920.43	-1350.99	 1397.96
     58.0270	 1893.00	 1913.22	-1322.79	 1397.86
     58.0530	 1908.00	 1906.40	-1300.96	 1397.77
     58.0790	 1869.00	 1899.92	-1333.49	 1397.68
     58.1050	 1865.00	 1893.79	-1331.35	 1397.59
     58.1310	 1912.00	 1887.97	-1278.53	 1397.51
     58.1570	 1809.00	 1882.44	-1376.01	 1397.42
     58.1830	 1820.00	 1877.20	-1359.77	 1397.34
     58.2090	 1877.00	 1872.23	-1297.79	 1397.27
     58.2350	 1838.00	 1867.50	-1332.07	 1397.19
     58.2610	 1888.00	 1863.01	-1277.58	 1397.12
     58.2870	 1827.00	 1858.75	-1334.31	 1397.05
     58.3130	 1859.00	 1854.70	-1298.26	 1396.99
     58.3390	 1875.00	 1850.84	-1278.41	 1396.92
     58.3650	 1875.00	 1847.18	-1274.75	 1396.86
     58.3910	 1850.00	 1843.70	-1296.26	 1396.81
     58.4170	 1773.00	 1840.38	-1369.95	 1396.75
     58.4430	 1889.00	 1837.23	-1250.80	 1396.70
     58.4690	 1870.00	 1834.23	-1266.79	 1396.65
     58.4950	 1818.00	 1831.37	-1315.94	 1396.61
     58.5210	 1862.00	 1828.66	-1269.22	 1396.56
     58.5470	 1894.00	 1826.07	-1234.63	 1396.52
     58.5730	 1845.00	 1823.60	-1281.17	 1396.48
     58.5990	 1818.00	 1821.26	-1305.82	 1396.45
     58.6250	 1824.00	 1819.02	-1297.59	 1396.41
     58.6510	 1805.00	 1816.90	-1314.46	 1396.38
     58.6770	 1819.00	 1814.88	-1298.44	 1396.36
     58.7030	 1817.00	 1812.95	-1298.52	 1396.33
     58.7290	 1813.00	 1811.12	-1300.68	 1396.31
     58.7550	 1823.00	 1809.38	-1288.94	 1396.29
     58.7810	 1790.00	 1807.72	-1320.28	 1396.27
     58.8070	 1818.00	 1806.14	-1290.71	 1396.26
     58.8330	 1906.00	 1804.62	-1201.19	 1396.25
     58.8590	 1914.00	 1803.20	-1191.77	 1396.24
     58.8850	 1878.00	 1801.84	-1226.41	 1396.23
     58.9110	 1857.00	 1800.56	-1246.13	 1396.23
     58.9370	 1844.00	 1799.35	-1257.92	 1396.23
     58.9630	 1825.00	 1798.20	-1275.77	 1396.23
     58.9890	 1783.00	 1797.12	-1316.68	 1396.23
     59.0150	 1807.00	 1796.09	-1291.66	 1396.24
     59.0410	 1857.00	 1795.13	-1240.69	 1396.25
     59.0670	 1834.00	 1794.22	-1262.78	 1396.26
     59.0930	 1850.00	 1793.36	-1245.93	 1396.27
     59.1190	 1821.00	 1792.56	-1274.12	 1396.29
     59.1450	 1846.00	 1791.81	-1248.37	 1396.31
     59.1710	 1874.00	 1791.10	-1219.67	 1396.33
     59.1970	 1881.00	 1790.45	-1212.01	 1396.35
     59.2230	 1849.00	 1789.84	-1243.41	 1396.38
     59.2490	 1880.00	 1789.28	-1211.85	 1396.40
     59.2750	 1867.00	 1788.77	-1224.33	 1396.44
     59.3010	 1830.00	 1788.29	-1260.86	 1396.47
     59.3270	 1862.00	 1787.86	-1228.43	 1396.50
     59.3530	 1891.00	 1787.48	-1199.04	 1396.54
     59.3790	 1799.00	 1787.13	-1290.70	 1396.58
     59.4050	 1846.00	 1786.83	-1243.39	 1396.62
     59.4310	 1866.00	 1786.56	-1223.13	 1396.67
     59.4570	 1829.00	 1786.33	-1259.90	 1396.72
     59.4830	 1867.00	 1786.15	-1221.71	 1396.77
     59.5090	 1944.00	 1786.00	-1144.56	 1396.82
     59.5350	 1930.00	 1785.89	-1158.45	 1396.87
     59.5610	 1915.00	 1785.81	-1173.38	 1396.93
     59.5870	 1836.00	 1785.77	-1252.34	 1396.98
     59.6130	 1901.00	 1785.77	-1187.34	 1397.04
     59.6390	 1850.00	 1785.81	-1238.37	 1397.11
     59.6650	 1836.00	 1785.88	-1252.45	 1397.17
     59.6910	 1829.00	 1785.99	-1259.56	 1397.24
     59.7170	 1885.00	 1786.14	-1203.70	 1397.31
     59.7430	 1854.00	 1786.32	-1234.88	 1397.38
     59.7690	 1779.00	 1786.54	-1310.10	 1397.45
     59.7950	 1862.00	 1786.79	-1227.35	 1397.53
     59.8210	 1857.00	 1787.08	-1232.65	 1397.60
     59.8470	 1893.00	 1787.41	-1196.97	 1397.68
     59.8730	 1852.00	 1787.77	-1238.34	 1397.76
     59.8990	 1885.00	 1788.17	-1205.74	 1397.85
     59.9250	 1846.00	 1788.61	-1245.18	 1397.93
     59.9510	 1813.00	 1789.09	-1278.65	 1398.02
     59.9770	 1815.00	 1789.61	-1277.17	 1398.11
     60.0030	 1886.00	 1790.16	-1206.72	 1398.20
     60.0290	 1786.00	 1790.75	-1307.32	 1398.29
     60.0550	 1807.00	 1791.39	-1286.95	 1398.38
     60.0810	 1907.00	 1792.06	-1187.63	 1398.48
     60.1070	 1917.00	 1792.78	-1178.34	 1398.58
     60.1330	 1922.00	 1793.54	-1174.10	 1398.68
     60.1590	 1909.00	 1794.34	-1187.90	 1398.78
     60.1850	 1802.00	 1795.19	-1295.75	 1398.88
     60.2110	 1831.00	 1796.08	-1267.64	 1398.99
     60.2370	 1782.00	 1797.01	-1317.58	 1399.09
     60.2630	 1820.00	 1798.00	-1280.56	 1399.20
     60.2890	 1830.00	 1799.03	-1271.60	 1399.31
     60.3150	 1899.00	 1800.12	-1203.68	 1399.42
     60.3410	 1891.00	 1801.25	-1212.82	 1399.53
     60.3670	 1819.00	 1802.44	-1286.01	 1399.65
     60.3930	 1829.00	 1803.69	-1277.25	 1399.77
     60.4190	 1850.00	 1804.98	-1257.55	 1399.88
     60.4450	 1899.00	 1806.34	-1209.91	 1400.00
     60.4710	 1818.00	 1807.76	-1292.33	 1400.12
     60.4970	 1846.00	 1809.24	-1265.81	 1400.24
     60.5230	 1877.00	 1810.79	-1236.35	 1400.37
     60.5490	 1847.00	 1812.40	-1267.96	 1400.49
     60.5750	 1830.00	 1814.08	-1286.64	 1400.62
     60.6010	 1921.00	 1815.83	-1197.40	 1400.75
     60.6270	 1926.00	 1817.66	-1194.23	 1400.87
     60.6530	 1821.00	 1819.57	-1301.13	 1401.00
     60.6790	 1868.00	 1821.55	-1256.12	 1401.14
     60.7050	 1892.00	 1823.63	-1234.19	 1401.27
     60.7310	 1903.00	 1825.78	-1225.35	 1401.40
     60.7570	 1847.00	 1828.04	-1283.60	 1401.54
     60.7830	 1862.00	 1830.38	-1270.95	 1401.67
     60.8090	 1869.00	 1832.83	-1266.39	 1401.81
     60.8350	 1883.00	 1835.38	-1254.95	 1401.95
     60.8610	 1843.00	 1838.04	-1297.61	 1402.09
     60.8870	 1793.00	 1840.82	-1350.38	 1402.23
     60.9130	 1825.00	 1843.72	-1321.28	 1402.37
     60.9390	 1774.00	 1846.74	-1375.30	 1402.51
     60.9650	 1862.00	 1849.90	-1290.46	 1402.65
     60.9910	 1892.00	 1853.19	-1263.75	 1402.80
     61.0170	 1878.00	 1856.63	-1281.20	 1402.94
     61.0430	 1844.00	 1860.22	-1318.79	 1403.09
     61.0690	 1860.00	 1863.98	-1306.55	 1403.23
     61.0950	 1889.00	 1867.91	-1281.47	 1403.38
     61.1210	 1941.00	 1872.01	-1233.58	 1403.53
     61.1470	 1979.00	 1876.31	-1199.87	 1403.68
     61.1730	 1945.00	 1880.80	-1238.36	 1403.83
     61.1990	 1903.00	 1885.50	-1285.07	 1403.98
     61.2250	 1848.00	 1890.43	-1345.00	 1404.13
     61.2510	 1858.00	 1895.59	-1340.16	 1404.28
     61.2770	 1891.00	 1901.00	-1312.56	 1404.43
     61.3030	 1900.00	 1906.67	-1309.24	 1404.59
     61.3290	 1900.00	 1912.62	-1315.18	 1404.74
     61.3550	 1843.00	 1918.86	-1378.42	 1404.89
     61.3810	 1871.00	 1925.41	-1356.98	 1405.05
     61.4070	 1923.00	 1932.29	-1311.86	 1405.20
     61.4330	 1898.00	 1939.52	-1344.08	 1405.35
     61.4590	 1934.00	 1947.11	-1315.68	 1405.51
     61.4850	 1969.00	 1955.10	-1288.67	 1405.67
     61.5110	 1914.00	 1963.50	-1352.06	 1405.82
     61.5370	 1912.00	 1972.34	-1362.90	 1405.98
     61.5630	 1960.00	 1981.64	-1324.20	 1406.13
     61.5890	 1913.00	 1991.43	-1380.99	 1406.29
     61.6150	 1923.00	 2001.74	-1381.30	 1406.45
     61.6410	 1988.00	 2012.59	-1327.16	 1406.60
     61.6670	 2019.00	 2024.03	-1307.59	 1406.76
     61.6930	 1966.00	 2036.08	-1372.64	 1406.92
     61.7190	 1909.00	 2048.77	-1442.34	 1407.07
     61.7450	 1948.00	 2062.15	-1416.71	 1407.23
     61.7710	 2033.00	 2076.23	-1345.80	 1407.39
     61.7970	 2088.00	 2091.07	-1305.63	 1407.54
     61.8230	 2115.00	 2106.69	-1294.26	 1407.70
     61.8490	 2059.00	 2123.13	-1366.69	 1407.86
     61.8750	 2106.00	 2140.42	-1336.98	 1408.01
     61.9010	 2157.00	 2158.59	-1304.15	 1408.17
     61.9270	 2206.00	 2177.67	-1274.23	 1408.33
     61.9530	 2235.00	 2197.67	-1265.24	 1408.48
     61.9790	 2204.00	 2218.62	-1317.18	 1408.64
     62.0050	 2154.00	 2240.52	-1389.09	 1408.79
     62.0310	 2156.00	 2263.37	-1409.93	 1408.95
     62.0570	 2232.00	 2287.15	-1357.71	 1409.10
     62.0830	 2305.00	 2311.82	-1309.39	 1409.25
     62.1090	 2368.00	 2337.35	-1271.92	 1409.41
     62.1350	 2416.00	 2363.66	-1250.22	 1409.56
     62.1610	 2435.00	 2390.63	-1258.20	 1409.71
     62.1870	 2518.00	 2418.17	-1202.74	 1409.86
     62.2130	 2631.00	 2446.11	-1117.68	 1410.01
     62.2390	 2595.00	 2474.27	-1181.83	 1410.16
     62.2650	 2532.00	 2502.41	-1272.97	 1410.31
     62.2910	 2526.00	 2530.29	-1306.86	 1410.46
     62.3170	 2693.00	 2557.63	-1167.19	 1410.61
     62.3430	 2738.00	 2584.11	-1148.67	 1410.76
     62.3690	 2711.00	 2609.38	-1200.95	 1410.90
     62.3950	 2715.00	 2633.12	-1220.68	 1411.05
     62.4210	 2812.00	 2654.95	-1145.51	 1411.19
     62.4470	 2774.00	 2674.53	-1203.09	 1411.34
     62.4730	 2795.00	 2691.53	-1199.09	 1411.48
     62.4990	 2855.00	 2705.65	-1153.21	 1411.62
     62.5250	 2900.00	 2716.63	-1119.20	 1411.76
     62.5510	 2916.00	 2724.29	-1110.85	 1411.90
     62.5770	 2912.00	 2728.47	-1119.03	 1412.04
     62.6030	 2836.00	 2729.11	-1195.68	 1412.17
     62.6290	 2851.00	 2726.22	-1177.78	 1412.31
     62.6550	 2923.00	 2719.85	-1099.41	 1412.44
     62.6810	 2907.00	 2710.14	-1105.71	 1412.58
     62.7070	 2836.00	 2697.30	-1163.86	 1412.71
     62.7330	 2860.00	 2681.55	-1124.11	 1412.84
     62.7590	 2799.00	 2663.18	-1166.74	 1412.97
     62.7850	 2958.00	 2642.51	 -987.07	 1413.09
     62.8110	 2791.00	 2619.85	-1131.42	 1413.22
     62.8370	 2761.00	 2595.56	-1137.13	 1413.34
     62.8630	 2677.00	 2569.97	-1195.54	 1413.47
     62.8890	 2683.00	 2543.41	-1162.97	 1413.59
     62.9150	 2633.00	 2516.16	-1185.73	 1413.71
     62.9410	 2638.00	 2488.54	-1153.10	 1413.82
     62.9670	 2531.00	 2460.78	-1232.34	 1413.94
     62.9930	 2544.00	 2433.12	-1191.68	 1414.05
     63.0190	 2474.00	 2405.75	-1234.31	 1414.17
     63.0450	 2467.00	 2378.84	-1214.40	 1414.28
     63.0710	 2449.00	 2352.52	-1206.08	 1414.39
     63.0970	 2394.00	 2326.91	-1235.47	 1414.49
     63.1230	 2373.00	 2302.08	-1231.64	 1414.60
     63.1490	 2316.00	 2278.10	-1264.67	 1414.70
     63.1750	 2315.00	 2255.02	-1242.58	 1414.80
     63.2010	 2273.00	 2232.85	-1262.42	 1414.90
     63.2270	 2323.00	 2211.61	-1191.18	 1414.99
     63.2530	 2284.00	 2191.31	-1209.87	 1415.09
     63.2790	 2251.00	 2171.93	-1223.49	 1415.18
     63.3050	 2162.00	 2153.45	-1294.01	 1415.27
     63.3310	 2134.00	 2135.85	-1304.42	 1415.36
     63.3570	 2084.00	 2119.11	-1337.68	 1415.44
     63.3830	 2055.00	 2103.20	-1350.77	 1415.53
     63.4090	 2054.00	 2088.08	-1336.64	 1415.61
     63.4350	 2021.00	 2073.72	-1355.28	 1415.69
     63.4610	 2031.00	 2060.08	-1331.65	 1415.76
     63.4870	 1987.00	 2047.14	-1362.70	 1415.83
     63.5130	 1952.00	 2034.85	-1385.42	 1415.91
     63.5390	 1975.00	 2023.19	-1350.76	 1415.97
     63.5650	 1951.00	 2012.12	-1363.68	 1416.04
     63.5910	 1937.00	 2001.61	-1367.17	 1416.10
     63.6170	 1915.00	 1991.63	-1379.19	 1416.16
     63.6430	 1893.00	 1982.15	-1391.71	 1416.22
     63.6690	 1906.00	 1973.14	-1369.71	 1416.27
     63.6950	 1923.00	 1964.58	-1344.15	 1416.33
     63.7210	 1911.00	 1956.44	-1348.01	 1416.37
     63.7470	 1886.00	 1948.70	-1365.27	 1416.42
     63.7730	 1890.00	 1941.34	-1353.90	 1416.46
     63.7990	 1849.00	 1934.33	-1387.89	 1416.50
     63.8250	 1867.00	 1927.65	-1363.21	 1416.54
     63.8510	 1893.00	 1921.29	-1330.85	 1416.58
     63.8770	 1899.00	 1915.22	-1318.79	 1416.61
     63.9030	 1911.00	 1909.44	-1301.01	 1416.63
     63.9290	 1919.00	 1903.93	-1287.49	 1416.66
     63.9550	 1904.00	 1898.66	-1297.23	 1416.68
     63.9810	 1860.00	 1893.63	-1336.20	 1416.70
     64.0070	 1877.00	 1888.83	-1314.39	 1416.71
     64.0330	 1878.00	 1884.24	-1308.80	 1416.73
     64.0590	 1864.00	 1879.85	-1318.41	 1416.74
     64.0850	 1840.00	 1875.65	-1338.21	 1416.74
     64.1110	 1807.00	 1871.62	-1367.19	 1416.74
     64.1370	 1864.00	 1867.77	-1306.34	 1416.74
     64.1630	 1844.00	 1864.08	-1322.65	 1416.74
     64.1890	 1815.00	 1860.54	-1348.11	 1416.73
     64.2150	 1862.00	 1857.15	-1297.72	 1416.71
     64.2410	 1869.00	 1853.90	-1287.46	 1416.70
     64.2670	 1875.00	 1850.78	-1278.34	 1416.68
     64.2930	 1844.00	 1847.78	-1306.34	 1416.66
     64.3190	 1852.00	 1844.90	-1295.47	 1416.63
     64.3450	 1850.00	 1842.14	-1294.70	 1416.60
     64.3710	 1792.00	 1839.48	-1350.04	 1416.57
     64.3970	 1769.00	 1836.92	-1370.49	 1416.53
     64.4230	 1797.00	 1834.46	-1340.03	 1416.49
     64.4490	 1817.00	 1832.10	-1317.67	 1416.44
     64.4750	 1843.00	 1829.83	-1289.39	 1416.39
     64.5010	 1919.00	 1827.64	-1211.20	 1416.34
     64.5270	 1899.00	 1825.53	-1229.10	 1416.28
     64.5530	 1834.00	 1823.51	-1292.07	 1416.22
     64.5790	 1783.00	 1821.55	-1341.12	 1416.15
     64.6050	 1802.00	 1819.68	-1320.24	 1416.08
     64.6310	 1845.00	 1817.87	-1275.43	 1416.01
     64.6570	 1849.00	 1816.13	-1269.69	 1415.93
     64.6830	 1838.00	 1814.45	-1279.01	 1415.85
     64.7090	 1797.00	 1812.84	-1318.40	 1415.76
     64.7350	 1800.00	 1811.28	-1313.85	 1415.67
     64.7610	 1827.00	 1809.79	-1285.35	 1415.58
     64.7870	 1797.00	 1808.35	-1313.92	 1415.48
     64.8130	 1851.00	 1806.97	-1258.54	 1415.37
     64.8390	 1818.00	 1805.65	-1290.21	 1415.27
     64.8650	 1787.00	 1804.37	-1319.94	 1415.15
     64.8910	 1833.00	 1803.15	-1272.72	 1415.04
     64.9170	 1828.00	 1801.98	-1276.55	 1414.92
     64.9430	 1851.00	 1800.86	-1252.42	 1414.79
     64.9690	 1834.00	 1799.79	-1268.35	 1414.66
     64.9950	 1852.00	 1798.76	-1249.33	 1414.53
     65.0210	 1825.00	 1797.78	-1275.35	 1414.39
     65.0470	 1836.00	 1796.85	-1263.42	 1414.24
     65.0730	 1892.00	 1795.97	-1206.53	 1414.09
     65.0990	 1887.00	 1795.13	-1210.69	 1413.94
     65.1250	 1772.00	 1794.33	-1324.90	 1413.78
     65.1510	 1863.00	 1793.58	-1233.15	 1413.62
     65.1770	 1831.00	 1792.87	-1264.44	 1413.45
     65.2030	 1817.00	 1792.21	-1277.77	 1413.28
     65.2290	 1751.00	 1791.58	-1343.15	 1413.10
     65.2550	 1817.00	 1791.00	-1276.56	 1412.92
     65.2810	 1801.00	 1790.45	-1292.02	 1412.73
     65.3070	 1816.00	 1789.94	-1276.51	 1412.54
     65.3330	 1836.00	 1789.47	-1256.03	 1412.34
     65.3590	 1806.00	 1789.03	-1285.59	 1412.14
     65.3850	 1846.00	 1788.62	-1245.18	 1411.93
     65.4110	 1861.00	 1788.23	-1229.79	 1411.72
     65.4370	 1817.00	 1787.86	-1273.43	 1411.51
     65.4630	 1861.00	 1787.51	-1229.08	 1411.28
     65.4890	 1826.00	 1787.17	-1263.74	 1411.06
     65.5150	 1801.00	 1786.84	-1288.41	 1410.82
     65.5410	 1776.00	 1786.51	-1313.07	 1410.59
     65.5670	 1736.00	 1786.16	-1352.73	 1410.34
     65.5930	 1828.00	 1785.80	-1260.37	 1410.10
     65.6190	 1809.00	 1785.42	-1278.98	 1409.84
     65.6450	 1882.00	 1785.00	-1205.57	 1409.59
     65.6710	 1882.00	 1784.54	-1205.11	 1409.32
     65.6970	 1883.00	 1784.04	-1203.61	 1409.05
     65.7230	 1844.00	 1783.49	-1242.05	 1408.78
     65.7490	 1829.00	 1782.88	-1256.44	 1408.50
     65.7750	 1837.00	 1782.20	-1247.77	 1408.21
     65.8010	 1874.00	 1781.46	-1210.03	 1407.92
     65.8270	 1821.00	 1780.66	-1262.22	 1407.63
     65.8530	 1745.00	 1779.78	-1337.35	 1407.33
     65.8790	 1795.00	 1778.85	-1286.41	 1407.02
     65.9050	 1826.00	 1777.85	-1254.41	 1406.71
     65.9310	 1839.00	 1776.79	-1240.35	 1406.39
     65.9570	 1816.00	 1775.67	-1262.24	 1406.07
     65.9830	 1786.00	 1774.51	-1291.08	 1405.74
     66.0090	 1822.00	 1773.31	-1253.87	 1405.40
     66.0350	 1828.00	 1772.06	-1246.63	 1405.06
     66.0610	 1817.00	 1770.79	-1256.35	 1404.72
     66.0870	 1817.00	 1769.49	-1255.06	 1404.37
     66.1130	 1776.00	 1768.18	-1294.74	 1404.01
     66.1390	 1837.00	 1766.85	-1232.42	 1403.65
     66.1650	 1829.00	 1765.52	-1239.09	 1403.28
     66.1910	 1798.00	 1764.19	-1268.75	 1402.91
     66.2170	 1802.00	 1762.86	-1263.42	 1402.53
     66.2430	 1732.00	 1761.54	-1332.10	 1402.14
     66.2690	 1764.00	 1760.23	-1298.79	 1401.75
     66.2950	 1777.00	 1758.93	-1284.49	 1401.36
     66.3210	 1787.00	 1757.65	-1273.21	 1400.95
     66.3470	 1782.00	 1756.38	-1276.95	 1400.54
     66.3730	 1778.00	 1755.14	-1279.70	 1400.13
     66.3990	 1821.00	 1753.91	-1235.47	 1399.71
     66.4250	 1844.00	 1752.70	-1211.27	 1399.29
     66.4510	 1792.00	 1751.52	-1262.08	 1398.85
     66.4770	 1770.00	 1750.35	-1282.91	 1398.42
     66.5030	 1783.00	 1749.20	-1268.77	 1397.97
     66.5290	 1796.00	 1748.07	-1254.64	 1397.53
     66.5550	 1773.00	 1746.97	-1276.53	 1397.07
     66.5810	 1755.00	 1745.87	-1293.44	 1396.61
     66.6070	 1766.00	 1744.80	-1281.37	 1396.14
     66.6330	 1749.00	 1743.74	-1297.31	 1395.67
     66.6590	 1765.00	 1742.70	-1280.27	 1395.19
     66.6850	 1797.00	 1741.68	-1247.24	 1394.71
     66.7110	 1779.00	 1740.66	-1264.23	 1394.22
     66.7370	 1757.00	 1739.66	-1285.23	 1393.72
     66.7630	 1715.00	 1738.68	-1326.24	 1393.22
     66.7890	 1671.00	 1737.70	-1369.27	 1392.71
     66.8150	 1702.00	 1736.74	-1337.30	 1392.20
     66.8410	 1733.00	 1735.79	-1305.35	 1391.68
     66.8670	 1756.00	 1734.84	-1281.41	 1391.15
     66.8930	 1740.00	 1733.91	-1296.47	 1390.62
     66.9190	 1713.00	 1732.98	-1322.55	 1390.08
     66.9450	 1704.00	 1732.06	-1330.63	 1389.54
     66.9710	 1675.00	 1731.15	-1358.71	 1388.99
     66.9970	 1670.00	 1730.24	-1362.81	 1388.43
     67.0230	 1690.00	 1729.34	-1341.91	 1387.87
     67.0490	 1710.00	 1728.45	-1321.01	 1387.31
     67.0750	 1692.00	 1727.56	-1338.12	 1386.73
     67.1010	 1759.00	 1726.68	-1270.24	 1386.15
     67.1270	 1763.00	 1725.79	-1265.36	 1385.57
     67.1530	 1693.00	 1724.92	-1334.48	 1384.98
     67.1790	 1724.00	 1724.04	-1302.61	 1384.38
     67.2050	 1791.00	 1723.17	-1234.74	 1383.77
     67.2310	 1764.00	 1722.31	-1260.87	 1383.17
     67.2570	 1744.00	 1721.44	-1280.01	 1382.55
     67.2830	 1785.00	 1720.58	-1238.14	 1381.93
     67.3090	 1667.00	 1719.72	-1355.28	 1381.30
     67.3350	 1660.00	 1718.86	-1361.42	 1380.67
     67.3610	 1706.00	 1718.00	-1314.56	 1380.03
     67.3870	 1680.00	 1717.14	-1339.71	 1379.38
     67.4130	 1683.00	 1716.28	-1335.85	 1378.73
     67.4390	 1704.00	 1715.43	-1313.99	 1378.08
     67.4650	 1717.00	 1714.57	-1300.14	 1377.41
     67.4910	 1738.00	 1713.72	-1278.28	 1376.74
     67.5170	 1694.00	 1712.86	-1321.43	 1376.07
     67.5430	 1776.00	 1712.01	-1238.57	 1375.39
     67.5690	 1613.00	 1711.15	-1400.72	 1374.70
     67.5950	 1624.00	 1710.30	-1388.86	 1374.01
     67.6210	 1590.00	 1709.44	-1422.01	 1373.31
     67.6470	 1665.00	 1708.59	-1346.15	 1372.61
     67.6730	 1641.00	 1707.73	-1369.30	 1371.90
     67.6990	 1711.00	 1706.87	-1298.44	 1371.18
     67.7250	 1650.00	 1706.02	-1358.58	 1370.46
     67.7510	 1699.00	 1705.16	-1308.72	 1369.73
     67.7770	 1707.00	 1704.30	-1299.86	 1369.00
     67.8030	 1695.00	 1703.44	-1311.00	 1368.26
     67.8290	 1614.00	 1702.57	-1391.14	 1367.52
     67.8550	 1686.00	 1701.71	-1318.27	 1366.77
     67.8810	 1633.00	 1700.85	-1370.41	 1366.01
     67.9070	 1658.00	 1699.98	-1344.55	 1365.25
     67.9330	 1783.00	 1699.11	-1218.68	 1364.48
     67.9590	 1768.00	 1698.25	-1232.81	 1363.71
     67.9850	 1774.00	 1697.38	-1225.94	 1362.93
     68.0110	 1676.00	 1696.51	-1323.07	 1362.15
     68.0370	 1677.00	 1695.63	-1321.20	 1361.36
     68.0630	 1639.00	 1694.76	-1358.32	 1360.56
     68.0890	 1643.00	 1693.88	-1353.45	 1359.76
     68.1150	 1666.00	 1693.01	-1329.57	 1358.95
     68.1410	 1629.00	 1692.13	-1365.70	 1358.14
     68.1670	 1636.00	 1691.25	-1357.82	 1357.33
     68.1930	 1708.00	 1690.37	-1284.94	 1356.50
     68.2190	 1690.00	 1689.49	-1302.06	 1355.67
     68.2450	 1643.00	 1688.61	-1348.17	 1354.84
     68.2710	 1623.00	 1687.72	-1367.29	 1354.00
     68.2970	 1651.00	 1686.84	-1338.40	 1353.16
     68.3230	 1670.00	 1685.95	-1318.52	 1352.31
     68.3490	 1600.00	 1685.06	-1387.63	 1351.45
     68.3750	 1707.00	 1684.18	-1279.74	 1350.59
     68.4010	 1744.00	 1683.29	-1241.85	 1349.73
     68.4270	 1684.00	 1682.40	-1300.96	 1348.85
     68.4530	 1673.00	 1681.50	-1311.07	 1347.98
     68.4790	 1677.00	 1680.61	-1306.18	 1347.10
     68.5050	 1619.00	 1679.72	-1363.28	 1346.21
     68.5310	 1670.00	 1678.83	-1311.39	 1345.32
     68.5570	 1754.00	 1677.93	-1226.50	 1344.42
     68.5830	 1633.00	 1677.04	-1346.60	 1343.52
     68.6090	 1563.00	 1676.14	-1415.71	 1342.62
     68.6350	 1620.00	 1675.25	-1357.81	 1341.71
     68.6610	 1671.00	 1674.35	-1305.92	 1340.79
     68.6870	 1653.00	 1673.46	-1323.02	 1339.87
     68.7130	 1669.00	 1672.57	-1306.13	 1338.94
     68.7390	 1605.00	 1671.67	-1369.24	 1338.01
     68.7650	 1631.00	 1670.78	-1342.34	 1337.08
     68.7910	 1622.00	 1669.88	-1350.45	 1336.14
     68.8170	 1584.00	 1668.99	-1387.56	 1335.19
     68.8430	 1643.00	 1668.10	-1327.67	 1334.24
     68.8690	 1660.00	 1667.21	-1309.78	 1333.29
     68.8950	 1611.00	 1666.32	-1357.89	 1332.33
     68.9210	 1604.00	 1665.44	-1364.00	 1331.37
     68.9470	 1616.00	 1664.55	-1351.11	 1330.40
     68.9730	 1630.00	 1663.67	-1336.23	 1329.43
     68.9990	 1650.00	 1662.79	-1315.35	 1328.45
     69.0250	 1640.00	 1661.91	-1324.47	 1327.47
     69.0510	 1621.00	 1661.03	-1342.60	 1326.49
     69.0770	 1644.00	 1660.16	-1318.72	 1325.50
     69.1030	 1621.00	 1659.29	-1340.86	 1324.50
     69.1290	 1583.00	 1658.43	-1377.99	 1323.51
     69.1550	 1587.00	 1657.57	-1373.13	 1322.51
     69.1810	 1607.00	 1656.71	-1352.27	 1321.50
     69.2070	 1620.00	 1655.86	-1338.42	 1320.49
     69.2330	 1630.00	 1655.01	-1327.58	 1319.48
     69.2590	 1625.00	 1654.17	-1331.73	 1318.46
     69.2850	 1634.00	 1653.34	-1321.90	 1317.44
     69.3110	 1661.00	 1652.51	-1294.07	 1316.41
     69.3370	 1643.00	 1651.69	-1311.25	 1315.39
     69.3630	 1633.00	 1650.87	-1320.44	 1314.35
     69.3890	 1589.00	 1650.07	-1363.63	 1313.32
     69.4150	 1561.00	 1649.27	-1390.83	 1312.28
     69.4410	 1616.00	 1648.48	-1335.05	 1311.24
     69.4670	 1642.00	 1647.71	-1308.27	 1310.19
     69.4930	 1637.00	 1646.94	-1312.50	 1309.14
     69.5190	 1585.00	 1646.18	-1363.75	 1308.09
     69.5450	 1574.00	 1645.44	-1374.00	 1307.03
     69.5710	 1579.00	 1644.71	-1368.27	 1305.97
     69.5970	 1600.00	 1643.99	-1346.56	 1304.91
     69.6230	 1614.00	 1643.29	-1331.86	 1303.84
     69.6490	 1648.00	 1642.60	-1297.17	 1302.77
     69.6750	 1645.00	 1641.93	-1299.50	 1301.70
     69.7010	 1641.00	 1641.28	-1302.85	 1300.63
     69.7270	 1631.00	 1640.65	-1312.22	 1299.55
     69.7530	 1627.00	 1640.04	-1315.60	 1298.47
     69.7790	 1602.00	 1639.45	-1340.01	 1297.39
     69.8050	 1600.00	 1638.88	-1341.44	 1296.30
     69.8310	 1559.00	 1638.33	-1381.90	 1295.22
     69.8570	 1620.00	 1637.82	-1320.38	 1294.13
     69.8830	 1625.00	 1637.32	-1314.89	 1293.03
     69.9090	 1610.00	 1636.86	-1329.43	 1291.94
     69.9350	 1661.00	 1636.43	-1278.00	 1290.84
     69.9610	 1680.00	 1636.03	-1258.60	 1289.74
     69.9870	 1607.00	 1635.67	-1331.23	 1288.64
     70.0130	 1647.00	 1635.34	-1290.90	 1287.53
     70.0390	 1607.00	 1635.05	-1330.61	 1286.43
     70.0650	 1595.00	 1634.80	-1342.36	 1285.32
     70.0910	 1583.00	 1634.59	-1354.16	 1284.21
     70.1170	 1599.00	 1634.43	-1338.00	 1283.10
     70.1430	 1564.00	 1634.32	-1372.88	 1281.99
     70.1690	 1629.00	 1634.25	-1307.82	 1280.87
     70.1950	 1599.00	 1634.24	-1337.81	 1279.75
     70.2210	 1657.00	 1634.28	-1279.85	 1278.64
     70.2470	 1656.00	 1634.38	-1280.94	 1277.52
     70.2730	 1610.00	 1634.54	-1327.10	 1276.40
     70.2990	 1614.00	 1634.75	-1323.32	 1275.27
     70.3250	 1552.00	 1635.03	-1385.59	 1274.15
     70.3510	 1608.00	 1635.37	-1329.93	 1273.03
     70.3770	 1574.00	 1635.77	-1364.34	 1271.90
     70.4030	 1614.00	 1636.24	-1324.81	 1270.77
     70.4290	 1550.00	 1636.77	-1389.34	 1269.65
     70.4550	 1667.00	 1637.36	-1272.93	 1268.52
     70.4810	 1522.00	 1638.01	-1418.58	 1267.39
     70.5070	 1711.00	 1638.72	-1230.29	 1266.26
     70.5330	 1645.00	 1639.48	-1297.04	 1265.13
     70.5590	 1648.00	 1640.28	-1294.85	 1264.00
     70.5850	 1624.00	 1641.12	-1319.68	 1262.87
     70.6110	 1594.00	 1641.98	-1350.55	 1261.74
     70.6370	 1601.00	 1642.86	-1344.42	 1260.61
     70.6630	 1593.00	 1643.74	-1353.30	 1259.47
     70.6890	 1658.00	 1644.60	-1289.16	 1258.34
     70.7150	 1605.00	 1645.43	-1342.99	 1257.21
     70.7410	 1601.00	 1646.20	-1347.77	 1256.08
     70.7670	 1594.00	 1646.91	-1355.47	 1254.95
     70.7930	 1597.00	 1647.52	-1353.08	 1253.82
     70.8190	 1577.00	 1648.01	-1373.57	 1252.69
     70.8450	 1540.00	 1648.37	-1410.93	 1251.56
     70.8710	 1598.00	 1648.57	-1353.13	 1250.43
     70.8970	 1575.00	 1648.59	-1376.15	 1249.30
     70.9230	 1654.00	 1648.42	-1296.99	 1248.17
     70.9490	 1595.00	 1648.05	-1355.61	 1247.04
     70.9750	 1592.00	 1647.46	-1358.02	 1245.92
     71.0010	 1615.00	 1646.64	-1334.21	 1244.79
     71.0270	 1570.00	 1645.61	-1378.17	 1243.67
     71.0530	 1658.00	 1644.35	-1288.91	 1242.54
     71.0790	 1579.00	 1642.87	-1366.43	 1241.42
     71.1050	 1637.00	 1641.18	-1306.75	 1240.30
     71.1310	 1547.00	 1639.30	-1394.86	 1239.18
     71.1570	 1580.00	 1637.23	-1359.80	 1238.07
     71.1830	 1589.00	 1635.00	-1348.57	 1236.95
     71.2090	 1579.00	 1632.63	-1356.19	 1235.84
     71.2350	 1634.00	 1630.12	-1298.69	 1234.72
     71.2610	 1593.00	 1627.51	-1337.08	 1233.61
     71.2870	 1616.00	 1624.82	-1311.38	 1232.50
     71.3130	 1627.00	 1622.06	-1297.62	 1231.40
     71.3390	 1634.00	 1619.25	-1287.82	 1230.29
     71.3650	 1634.00	 1616.42	-1284.98	 1229.19
     71.3910	 1562.00	 1613.57	-1354.14	 1228.09
     71.4170	 1567.00	 1610.73	-1346.30	 1227.00
     71.4430	 1599.00	 1607.91	-1311.47	 1225.90
     71.4690	 1588.00	 1605.12	-1319.68	 1224.81
     71.4950	 1567.00	 1602.36	-1337.93	 1223.72
     71.5210	 1569.00	 1599.66	-1333.22	 1222.64
     71.5470	 1575.00	 1597.01	-1324.57	 1221.55
     71.5730	 1537.00	 1594.42	-1359.98	 1220.47
     71.5990	 1541.00	 1591.82	-1353.39	 1219.40
     71.6250	 1564.00	 1589.37	-1327.93	 1218.32
     71.6510	 1584.00	 1586.99	-1305.55	 1217.25
     71.6770	 1570.00	 1584.64	-1317.20	 1216.19
     71.7030	 1546.00	 1582.40	-1338.96	 1215.12
     71.7290	 1531.00	 1580.23	-1351.80	 1214.06
     71.7550	 1532.00	 1578.14	-1348.71	 1213.01
     71.7810	 1552.00	 1576.12	-1326.68	 1211.96
     71.8070	 1565.00	 1574.17	-1311.73	 1210.91
     71.8330	 1581.00	 1572.29	-1293.85	 1209.86
     71.8590	 1564.00	 1570.47	-1309.04	 1208.82
     71.8850	 1561.00	 1568.73	-1310.29	 1207.79
     71.9110	 1607.00	 1567.05	-1262.61	 1206.76
     71.9370	 1615.00	 1565.43	-1252.99	 1205.73
     71.9630	 1567.00	 1563.87	-1299.44	 1204.71
     71.9890	 1584.00	 1562.38	-1280.94	 1203.69
     72.0150	 1613.00	 1560.94	-1250.50	 1202.68
     72.0410	 1535.00	 1559.56	-1327.12	 1201.67
     72.0670	 1490.00	 1558.23	-1370.80	 1200.67
     72.0930	 1484.00	 1556.97	-1375.53	 1199.67
     72.1190	 1538.00	 1555.75	-1320.32	 1198.67
     72.1450	 1542.00	 1554.59	-1315.15	 1197.69
     72.1710	 1556.00	 1553.48	-1300.05	 1196.70
     72.1970	 1565.00	 1552.42	-1289.99	 1195.73
     72.2230	 1548.00	 1551.42	-1305.98	 1194.75
     72.2490	 1549.00	 1550.46	-1304.03	 1193.79
     72.2750	 1558.00	 1549.56	-1294.12	 1192.83
     72.3010	 1504.00	 1548.70	-1347.26	 1191.87
     72.3270	 1539.00	 1547.89	-1311.46	 1190.92
     72.3530	 1598.00	 1547.14	-1251.70	 1189.98
     72.3790	 1600.00	 1546.43	-1249.00	 1189.05
     72.4050	 1558.00	 1545.78	-1290.34	 1188.12
     72.4310	 1534.00	 1545.17	-1313.74	 1187.19
     72.4570	 1571.00	 1544.62	-1276.19	 1186.27
     72.4830	 1556.00	 1544.12	-1290.68	 1185.36
     72.5090	 1542.00	 1543.67	-1304.24	 1184.46
     72.5350	 1569.00	 1543.28	-1276.84	 1183.56
     72.5610	 1565.00	 1542.94	-1280.50	 1182.67
     72.5870	 1558.00	 1542.66	-1287.22	 1181.78
     72.6130	 1561.00	 1542.43	-1284.00	 1180.90
     72.6390	 1572.00	 1542.26	-1272.83	 1180.03
     72.6650	 1524.00	 1542.16	-1320.72	 1179.17
     72.6910	 1577.00	 1542.12	-1267.68	 1178.31
     72.7170	 1570.00	 1542.14	-1274.70	 1177.46
     72.7430	 1570.00	 1542.23	-1274.79	 1176.62
     72.7690	 1626.00	 1542.39	-1218.95	 1175.79
     72.7950	 1637.00	 1542.62	-1208.18	 1174.96
     72.8210	 1605.00	 1542.92	-1240.49	 1174.14
     72.8470	 1666.00	 1543.30	-1179.87	 1173.33
     72.8730	 1683.00	 1543.77	-1163.33	 1172.53
     72.8990	 1601.00	 1544.31	-1245.88	 1171.73
     72.9250	 1555.00	 1544.95	-1292.51	 1170.94
     72.9510	 1645.00	 1545.67	-1203.24	 1170.16
     72.9770	 1588.00	 1546.49	-1261.06	 1169.39
     73.0030	 1547.00	 1547.41	-1302.97	 1168.63
     73.0290	 1599.00	 1548.43	-1252.00	 1167.87
     73.0550	 1587.00	 1549.56	-1265.13	 1167.13
     73.0810	 1550.00	 1550.80	-1303.37	 1166.39
     73.1070	 1637.00	 1552.16	-1217.73	 1165.66
     73.1330	 1596.00	 1553.65	-1260.21	 1164.94
     73.1590	 1673.00	 1555.26	-1184.82	 1164.23
     73.1850	 1646.00	 1557.00	-1213.57	 1163.52
     73.2110	 1588.00	 1558.88	-1273.45	 1162.83
     73.2370	 1527.00	 1560.91	-1336.47	 1162.14
     73.2630	 1656.00	 1563.08	-1209.64	 1161.47
     73.2890	 1556.00	 1565.40	-1311.97	 1160.80
     73.3150	 1607.00	 1567.88	-1263.45	 1160.14
     73.3410	 1586.00	 1570.53	-1287.09	 1159.49
     73.3670	 1606.00	 1573.33	-1269.90	 1158.85
     73.3930	 1644.00	 1576.30	-1234.87	 1158.22
     73.4190	 1642.00	 1579.44	-1240.00	 1157.60
     73.4450	 1694.00	 1582.74	-1191.31	 1156.99
     73.4710	 1645.00	 1586.21	-1243.78	 1156.39
     73.4970	 1679.00	 1589.84	-1213.40	 1155.80
     73.5230	 1676.00	 1593.62	-1220.19	 1155.21
     73.5490	 1600.00	 1597.54	-1300.11	 1154.64
     73.5750	 1615.00	 1601.60	-1289.16	 1154.08
     73.6010	 1605.00	 1605.77	-1303.33	 1153.53
     73.6270	 1651.00	 1610.03	-1261.60	 1152.98
     73.6530	 1656.00	 1614.37	-1260.93	 1152.45
     73.6790	 1678.00	 1618.74	-1243.31	 1151.93
     73.7050	 1635.00	 1623.13	-1290.70	 1151.41
     73.7310	 1665.00	 1627.49	-1265.05	 1150.91
     73.7570	 1623.00	 1631.78	-1311.35	 1150.42
     73.7830	 1586.00	 1635.96	-1352.53	 1149.94
     73.8090	 1568.00	 1639.98	-1374.55	 1149.46
     73.8350	 1571.00	 1643.80	-1375.37	 1149.00
     73.8610	 1678.00	 1647.37	-1271.93	 1148.55
     73.8870	 1670.00	 1650.64	-1283.20	 1148.11
     73.9130	 1681.00	 1653.56	-1275.13	 1147.68
     73.9390	 1614.00	 1656.11	-1344.67	 1147.26
     73.9650	 1615.00	 1658.24	-1345.80	 1146.85
     73.9910	 1652.00	 1659.92	-1310.49	 1146.45
     74.0170	 1626.00	 1661.15	-1337.71	 1146.06
     74.0430	 1687.00	 1661.90	-1277.47	 1145.69
     74.0690	 1687.00	 1662.18	-1277.74	 1145.32
     74.0950	 1628.00	 1661.99	-1336.55	 1144.96
     74.1210	 1680.00	 1661.34	-1283.90	 1144.62
     74.1470	 1698.00	 1660.26	-1264.82	 1144.29
     74.1730	 1680.00	 1658.77	-1281.33	 1143.96
     74.1990	 1692.00	 1656.91	-1267.48	 1143.65
     74.2250	 1699.00	 1654.73	-1258.29	 1143.35
     74.2510	 1710.00	 1652.25	-1244.82	 1143.06
     74.2770	 1705.00	 1649.53	-1247.10	 1142.77
     74.3030	 1682.00	 1646.62	-1267.18	 1142.51
     74.3290	 1640.00	 1643.55	-1306.12	 1142.25
     74.3550	 1701.00	 1640.38	-1241.95	 1142.00
     74.3810	 1712.00	 1637.15	-1227.72	 1141.76
     74.4070	 1677.00	 1633.91	-1259.47	 1141.54
     74.4330	 1709.00	 1630.67	-1224.24	 1141.32
     74.4590	 1693.00	 1627.49	-1237.06	 1141.12
     74.4850	 1653.00	 1624.39	-1273.96	 1140.92
     74.5110	 1673.00	 1621.40	-1250.97	 1140.74
     74.5370	 1714.00	 1618.53	-1207.10	 1140.57
     74.5630	 1714.00	 1615.81	-1204.37	 1140.41
     74.5890	 1681.00	 1613.23	-1234.79	 1140.26
     74.6150	 1629.00	 1610.81	-1284.37	 1140.12
     74.6410	 1620.00	 1608.54	-1291.11	 1139.99
     74.6670	 1632.00	 1606.43	-1276.99	 1139.87
     74.6930	 1646.00	 1604.46	-1261.03	 1139.76
     74.7190	 1631.00	 1602.63	-1274.19	 1139.67
     74.7450	 1576.00	 1600.91	-1327.48	 1139.58
     74.7710	 1628.00	 1599.30	-1273.86	 1139.50
     74.7970	 1648.00	 1597.77	-1252.33	 1139.44
     74.8230	 1658.00	 1596.29	-1240.86	 1139.39
     74.8490	 1690.00	 1594.86	-1207.42	 1139.34
     74.8750	 1627.00	 1593.43	-1269.00	 1139.31
     74.9010	 1642.00	 1592.00	-1252.57	 1139.28
     74.9270	 1640.00	 1590.54	-1253.10	 1139.27
     74.9530	 1631.00	 1589.02	-1260.59	 1139.27
     74.9790	 1615.00	 1587.44	-1275.00	 1139.28
     75.0050	 1622.00	 1585.77	-1266.33	 1139.29
     75.0310	 1598.00	 1584.00	-1288.57	 1139.32
     75.0570	 1637.00	 1582.13	-1247.70	 1139.36
     75.0830	 1595.00	 1580.15	-1287.72	 1139.41
     75.1090	 1598.00	 1578.07	-1282.63	 1139.46
     75.1350	 1603.00	 1575.87	-1275.43	 1139.53
     75.1610	 1612.00	 1573.56	-1264.13	 1139.61
     75.1870	 1649.00	 1571.17	-1224.73	 1139.69
     75.2130	 1601.00	 1568.68	-1270.25	 1139.79
     75.2390	 1556.00	 1566.12	-1312.69	 1139.89
     75.2650	 1589.00	 1563.50	-1277.06	 1140.01
     75.2910	 1574.00	 1560.83	-1289.40	 1140.13
     75.3170	 1618.00	 1558.13	-1242.70	 1140.26
     75.3430	 1595.00	 1555.41	-1262.98	 1140.40
     75.3690	 1563.00	 1552.69	-1292.26	 1140.55
     75.3950	 1562.00	 1549.98	-1290.55	 1140.71
     75.4210	 1574.00	 1547.30	-1275.86	 1140.88
     75.4470	 1606.00	 1544.65	-1241.22	 1141.06
     75.4730	 1622.00	 1542.05	-1222.62	 1141.24
     75.4990	 1608.00	 1539.51	-1234.07	 1141.43
     75.5250	 1538.00	 1537.03	-1301.60	 1141.63
     75.5510	 1489.00	 1534.63	-1348.19	 1141.84
     75.5770	 1558.00	 1532.31	-1276.87	 1142.05
     75.6030	 1550.00	 1530.06	-1282.63	 1142.28
     75.6290	 1515.00	 1527.91	-1315.47	 1142.51
     75.6550	 1506.00	 1525.84	-1322.41	 1142.74
     75.6810	 1521.00	 1523.86	-1305.43	 1142.99
     75.7070	 1615.00	 1521.97	-1209.54	 1143.24
     75.7330	 1581.00	 1520.18	-1241.74	 1143.50
     75.7590	 1581.00	 1518.46	-1240.03	 1143.76
     75.7850	 1519.00	 1516.84	-1300.40	 1144.03
     75.8110	 1542.00	 1515.30	-1275.86	 1144.31
     75.8370	 1515.00	 1513.84	-1301.41	 1144.59
     75.8630	 1525.00	 1512.47	-1290.03	 1144.87
     75.8890	 1533.00	 1511.17	-1280.73	 1145.17
     75.9150	 1530.00	 1509.94	-1282.51	 1145.47
     75.9410	 1537.00	 1508.79	-1274.35	 1145.77
     75.9670	 1612.00	 1507.71	-1198.27	 1146.08
     75.9930	 1606.00	 1506.69	-1203.25	 1146.39
     76.0190	 1553.00	 1505.73	-1255.30	 1146.70
     76.0450	 1524.00	 1504.84	-1283.41	 1147.02
     76.0710	 1524.00	 1504.01	-1282.57	 1147.35
     76.0970	 1542.00	 1503.22	-1263.79	 1147.68
     76.1230	 1529.00	 1502.50	-1276.06	 1148.01
     76.1490	 1541.00	 1501.82	-1263.38	 1148.34
     76.1750	 1469.00	 1501.19	-1334.75	 1148.68
     76.2010	 1518.00	 1500.60	-1285.17	 1149.01
     76.2270	 1538.00	 1500.06	-1264.63	 1149.35
     76.2530	 1507.00	 1499.56	-1295.13	 1149.70
     76.2790	 1467.00	 1499.10	-1334.66	 1150.04
     76.3050	 1538.00	 1498.67	-1263.24	 1150.38
     76.3310	 1466.00	 1498.28	-1334.85	 1150.73
     76.3570	 1507.00	 1497.92	-1293.49	 1151.08
     76.3830	 1530.00	 1497.59	-1270.16	 1151.42
     76.4090	 1571.00	 1497.30	-1228.86	 1151.77
     76.4350	 1545.00	 1497.03	-1254.59	 1152.11
     76.4610	 1509.00	 1496.78	-1290.35	 1152.46
     76.4870	 1481.00	 1496.56	-1318.13	 1152.80
     76.5130	 1493.00	 1496.37	-1305.93	 1153.14
     76.5390	 1456.00	 1496.19	-1342.76	 1153.48
     76.5650	 1480.00	 1496.04	-1318.60	 1153.82
     76.5910	 1489.00	 1495.91	-1309.47	 1154.15
     76.6170	 1483.00	 1495.79	-1315.35	 1154.48
     76.6430	 1469.00	 1495.69	-1329.25	 1154.81
     76.6690	 1443.00	 1495.61	-1355.17	 1155.13
     76.6950	 1475.00	 1495.54	-1323.10	 1155.45
     76.7210	 1546.00	 1495.48	-1252.05	 1155.77
     76.7470	 1514.00	 1495.44	-1284.00	 1156.08
     76.7730	 1469.00	 1495.41	-1328.97	 1156.38
     76.7990	 1458.00	 1495.39	-1339.95	 1156.68
     76.8250	 1463.00	 1495.37	-1334.94	 1156.97
     76.8510	 1467.00	 1495.37	-1330.94	 1157.25
     76.8770	 1479.00	 1495.38	-1318.94	 1157.53
     76.9030	 1507.00	 1495.39	-1290.95	 1157.80
     76.9290	 1517.00	 1495.41	-1280.97	 1158.06
     76.9550	 1478.00	 1495.43	-1320.00	 1158.31
     76.9810	 1481.00	 1495.46	-1317.02	 1158.55
     77.0070	 1469.00	 1495.49	-1329.06	 1158.78
     77.0330	 1470.00	 1495.53	-1328.09	 1159.00
     77.0590	 1469.00	 1495.56	-1329.13	 1159.21
     77.0850	 1490.00	 1495.60	-1308.17	 1159.41
     77.1110	 1504.00	 1495.64	-1294.21	 1159.59
     77.1370	 1468.00	 1495.68	-1330.25	 1159.76
     77.1630	 1451.00	 1495.72	-1347.29	 1159.92
     77.1890	 1438.00	 1495.76	-1360.32	 1160.07
     77.2150	 1516.00	 1495.80	-1282.36	 1160.20
     77.2410	 1512.00	 1495.83	-1286.40	 1160.31
     77.2670	 1444.00	 1495.86	-1354.43	 1160.41
     77.2930	 1440.00	 1495.89	-1358.46	 1160.50
     77.3190	 1412.00	 1495.92	-1386.48	 1160.56
     77.3450	 1453.00	 1495.94	-1345.50	 1160.61
     77.3710	 1478.00	 1495.95	-1320.52	 1160.64
     77.3970	 1463.00	 1495.96	-1335.53	 1160.66
     77.4230	 1431.00	 1495.97	-1367.53	 1160.65
     77.4490	 1416.00	 1495.96	-1382.53	 1160.62
     77.4750	 1467.00	 1495.95	-1331.52	 1160.57
     77.5010	 1453.00	 1495.94	-1345.50	 1160.50
     77.5270	 1425.00	 1495.91	-1373.48	 1160.41
     77.5530	 1430.00	 1495.61	-1368.18	 1160.29
     77.5790	 1452.00	 1495.57	-1346.14	 1160.15
     77.6050	 1472.00	 1495.52	-1326.09	 1159.99
     77.6310	 1463.00	 1495.47	-1335.03	 1159.80
     77.6570	 1471.00	 1495.27	-1326.83	 1159.58
     77.6830	 1546.00	 1495.19	-1251.76	 1159.34
     77.7090	 1407.00	 1495.11	-1390.67	 1159.07
     77.7350	 1412.00	 1495.01	-1385.58	 1158.77
     77.7610	 1458.00	 1494.91	-1339.47	 1158.45
     77.7870	 1449.00	 1494.79	-1348.36	 1158.09
     77.8130	 1414.00	 1494.67	-1383.23	 1157.70
     77.8390	 1443.00	 1494.54	-1354.10	 1157.28
     77.8650	 1402.00	 1494.39	-1394.96	 1156.83
     77.8910	 1430.00	 1494.24	-1366.81	 1156.34
     77.9170	 1437.00	 1494.08	-1359.64	 1155.82
     77.9430	 1463.00	 1493.91	-1333.47	 1155.26
     77.9690	 1457.00	 1493.72	-1339.29	 1154.67
     77.9950	 1508.00	 1493.53	-1288.10	 1154.04
     78.0210	 1470.00	 1493.34	-1325.90	 1153.37
     78.0470	 1427.00	 1493.13	-1368.69	 1152.67
     78.0730	 1495.00	 1492.91	-1300.48	 1151.92
     78.0990	 1472.00	 1492.69	-1323.25	 1151.14
     78.1250	 1458.00	 1492.46	-1337.02	 1150.31
     78.1510	 1491.00	 1492.22	-1303.78	 1149.44
     78.1770	 1466.00	 1491.97	-1328.54	 1148.52
     78.2030	 1465.00	 1491.72	-1329.29	 1147.56
     78.2290	 1410.00	 1491.46	-1384.03	 1146.55
     78.2550	 1504.00	 1491.19	-1289.76	 1145.50
     78.2810	 1455.00	 1490.92	-1338.49	 1144.40
     78.3070	 1587.00	 1490.64	-1206.21	 1143.25
     78.3330	 1492.00	 1490.35	-1300.92	 1142.05
     78.3590	 1487.00	 1490.05	-1305.62	 1140.80
     78.3850	 1415.00	 1489.74	-1377.31	 1139.49
     78.4110	 1464.00	 1489.42	-1327.99	 1138.14
     78.4370	 1485.00	 1489.09	-1306.65	 1136.72
     78.4630	 1482.00	 1488.73	-1309.30	 1135.26
     78.4890	 1442.00	 1488.36	-1348.92	 1133.73
     78.5150	 1500.00	 1487.95	-1290.52	 1132.15
     78.5410	 1465.00	 1487.52	-1325.09	 1130.51
     78.5670	 1462.00	 1487.05	-1327.61	 1128.80
     78.5930	 1427.00	 1486.53	-1362.10	 1127.04
     78.6190	 1469.00	 1485.96	-1319.53	 1125.21
     78.6450	 1505.00	 1485.33	-1282.89	 1123.31
     78.6710	 1529.00	 1484.62	-1258.18	 1121.36
     78.6970	 1433.00	 1483.82	-1353.39	 1119.33
     78.7230	 1462.00	 1482.92	-1323.49	 1117.24
     78.7490	 1452.00	 1481.92	-1332.48	 1115.07
     78.7750	 1463.00	 1480.78	-1320.35	 1112.84
     78.8010	 1469.00	 1479.50	-1313.07	 1110.53
     78.8270	 1446.00	 1478.07	-1334.63	 1108.15
     78.8530	 1475.00	 1476.47	-1304.03	 1105.69
     78.8790	 1470.00	 1474.68	-1307.24	 1103.16
     78.9050	 1433.00	 1472.70	-1342.26	 1100.55
     78.9310	 1460.00	 1470.51	-1313.07	 1097.86
     78.9570	 1460.00	 1468.11	-1310.67	 1095.09
     78.9830	 1463.00	 1465.48	-1305.05	 1092.23
     79.0090	 1458.00	 1462.63	-1307.20	 1089.30
     79.0350	 1450.00	 1459.55	-1312.12	 1086.27
     79.0610	 1448.00	 1456.24	-1310.81	 1083.16
     79.0870	 1423.00	 1452.71	-1332.27	 1079.97
     79.1130	 1491.00	 1448.95	-1260.51	 1076.68
     79.1390	 1435.00	 1444.96	-1312.53	 1073.30
     79.1650	 1397.00	 1440.77	-1346.33	 1069.82
     79.1910	 1425.00	 1436.36	-1313.93	 1066.25
     79.2170	 1402.00	 1431.76	-1332.33	 1062.59
     79.2430	 1407.00	 1426.98	-1322.54	 1058.82
     79.2690	 1413.00	 1422.01	-1311.58	 1054.96
     79.2950	 1441.00	 1416.88	-1278.45	 1050.99
     79.3210	 1456.00	 1411.59	-1258.16	 1046.92
     79.3470	 1406.00	 1406.15	-1302.72	 1042.75
     79.3730	 1389.00	 1400.58	-1314.14	 1038.47
     79.3990	 1399.00	 1394.86	-1298.42	 1034.08
     79.4250	 1388.00	 1389.03	-1303.59	 1029.58
     79.4510	 1414.00	 1383.08	-1271.65	 1024.96
     79.4770	 1435.00	 1377.03	-1244.60	 1020.24
     79.5030	 1379.00	 1370.87	-1294.44	 1015.39
     79.5290	 1326.00	 1364.62	-1341.19	 1010.43
     79.5550	 1372.00	 1358.27	-1288.84	 1005.35
     79.5810	 1362.00	 1351.83	-1292.39	 1000.15
     79.6070	 1374.00	 1345.30	-1273.86	  994.82
     79.6330	 1407.00	 1338.67	-1234.24	  989.37
     79.6590	 1387.00	 1331.96	-1247.52	  983.79
     79.6850	 1369.00	 1325.15	-1258.71	  978.08
     79.7110	 1369.00	 1318.25	-1251.82	  972.24
     79.7370	 1360.00	 1311.26	-1253.82	  966.26
     79.7630	 1348.00	 1304.17	-1258.74	  960.15
     79.7890	 1358.00	 1296.98	-1241.55	  953.90
     79.8150	 1353.00	 1289.70	-1239.26	  947.51
     79.8410	 1392.00	 1282.30	-1192.87	  940.97
     79.8670	 1399.00	 1274.80	-1178.37	  934.29
