 AH10    CELL:    8.39430   8.39430   8.39430   90.0000   90.0000   90.0000   SPGR: F d -3 m               TEMP:      0.00
  1   2874     1.54056     1.54439    -0.17573    -0.00130     0.00000    0
   94    0    0
 2Theta	Yobs	Ycal	Yobs-Ycal	Backg	Bragg	Posr	(hkl)	K
      5.1690	 5101.00	 5432.06	-1870.27	 4988.15	     18.1132	       0	(  1  1  1)	  0  1
      5.1950	 5130.00	 5402.42	-1811.64	 4958.51	     18.1591	       0	(  1  1  1)	  0  2
      5.2210	 5076.00	 5373.17	-1836.39	 4929.26	     29.9086	       0	(  2  2  0)	  0  1
      5.2470	 5107.00	 5344.30	-1776.51	 4900.38	     29.9852	       0	(  2  2  0)	  0  2
      5.2730	 5104.00	 5315.81	-1751.02	 4871.87	     35.2598	       0	(  3  1  1)	  0  1
      5.2990	 5082.00	 5287.68	-1744.89	 4843.73	     35.3507	       0	(  3  1  1)	  0  2
      5.3250	 5086.00	 5259.91	-1713.12	 4815.96	     36.8915	       0	(  2  2  2)	  0  1
      5.3510	 5042.00	 5232.50	-1729.72	 4788.55	     36.9870	       0	(  2  2  2)	  0  2
      5.3770	 4999.00	 5205.46	-1745.67	 4761.49	     42.8901	       0	(  4  0  0)	  0  1
      5.4030	 5016.00	 5178.76	-1701.97	 4734.78	     43.0025	       0	(  4  0  0)	  0  2
      5.4290	 4929.00	 5152.40	-1762.62	 4708.42	     46.9768	       0	(  3  3  1)	  0  1
      5.4550	 5026.00	 5126.40	-1639.61	 4682.41	     47.1011	       0	(  3  3  1)	  0  2
      5.4810	 4961.00	 5100.72	-1678.94	 4656.73	     53.2512	       0	(  4  2  2)	  0  1
      5.5070	 4991.00	 5075.39	-1623.60	 4631.38	     53.3945	       0	(  4  2  2)	  0  2
      5.5330	 5058.00	 5050.38	-1531.59	 4606.37	     56.7772	       0	(  3  3  3)	  0  1
      5.5590	 4994.00	 5025.70	-1570.91	 4581.68	     56.7772	       0	(  5  1  1)	  0  1
      5.5850	 4969.00	 5001.34	-1571.55	 4557.31	     56.9317	       0	(  3  3  3)	  0  2
      5.6110	 4815.00	 4977.30	-1701.51	 4533.26	     56.9317	       0	(  5  1  1)	  0  2
      5.6370	 4840.00	 4953.57	-1652.78	 4509.53	     62.3645	       0	(  4  4  0)	  0  1
      5.6630	 4818.00	 4930.16	-1651.37	 4486.11	     62.5375	       0	(  4  4  0)	  0  2
      5.6890	 4781.00	 4907.05	-1665.26	 4462.99	     65.5814	       0	(  5  3  1)	  0  1
      5.7150	 4794.00	 4884.24	-1629.45	 4440.17	     65.7655	       0	(  5  3  1)	  0  2
      5.7410	 4759.00	 4861.73	-1641.94	 4417.66	     66.6353	       0	(  4  4  2)	  0  1
      5.7670	 4820.00	 4839.51	-1558.73	 4395.43	     66.8232	       0	(  4  4  2)	  0  2
      5.7930	 4767.00	 4817.59	-1589.81	 4373.50	     70.7736	       0	(  6  2  0)	  0  1
      5.8190	 4663.00	 4795.96	-1672.17	 4351.86	     70.9767	       0	(  6  2  0)	  0  2
      5.8450	 4645.00	 4774.61	-1668.82	 4330.50	     73.8096	       0	(  5  3  3)	  0  1
      5.8710	 4754.00	 4753.54	-1538.75	 4309.42	     74.0243	       0	(  5  3  3)	  0  2
      5.8970	 4897.00	 4732.74	-1374.95	 4288.62	     74.8110	       0	(  6  2  2)	  0  1
      5.9230	 4765.00	 4712.22	-1486.43	 4268.09	     75.0296	       0	(  6  2  2)	  0  2
      5.9490	 4609.00	 4691.97	-1622.18	 4247.83	     78.7734	       0	(  4  4  4)	  0  1
      5.9750	 4642.00	 4671.99	-1569.20	 4227.84	     79.0081	       0	(  4  4  4)	  0  2
      6.0010	 4671.00	 4652.26	-1520.48	 4208.11	     81.7093	       0	(  7  1  1)	  0  1
      6.0270	 4677.00	 4632.80	-1495.01	 4188.64	     81.7093	       0	(  5  5  1)	  0  1
      6.0530	 4696.00	 4613.60	-1456.81	 4169.43	     81.9566	       0	(  7  1  1)	  0  2
      6.0790	 4632.00	 4594.64	-1501.86	 4150.47	     81.9566	       0	(  5  5  1)	  0  2
      6.1050	 4616.00	 4575.94	-1499.15	 4131.76	     86.5591	       0	(  6  4  2)	  0  1
      6.1310	 4566.00	 4557.48	-1530.70	 4113.29	     86.8283	       0	(  6  4  2)	  0  2
      6.1570	 4541.00	 4539.27	-1537.48	 4095.07	     89.4555	       0	(  7  3  1)	  0  1
      6.1830	 4542.00	 4521.30	-1518.51	 4077.09	     89.4555	       0	(  5  5  3)	  0  1
      6.2090	 4546.00	 4503.56	-1496.77	 4059.34	     89.7388	       0	(  7  3  1)	  0  2
      6.2350	 4535.00	 4486.16	-1490.38	 4041.83	     89.7388	       0	(  5  5  3)	  0  2
      6.2610	 4482.00	 4468.89	-1526.10	 4024.55	     94.2844	       0	(  8  0  0)	  0  1
      6.2870	 4456.00	 4451.85	-1535.06	 4007.50	     94.5927	       0	(  8  0  0)	  0  2
      6.3130	 4520.00	 4435.03	-1454.24	 3990.67	     97.1949	       0	(  7  3  3)	  0  1
      6.3390	 4529.00	 4418.48	-1428.69	 3974.06	     97.5194	       0	(  7  3  3)	  0  2
      6.3650	 4555.00	 4402.10	-1386.31	 3957.68	     98.1690	       0	(  6  4  4)	  0  1
      6.3910	 4579.00	 4385.94	-1346.15	 3941.50	     98.4991	       0	(  6  4  4)	  0  2
      6.4170	 4486.00	 4369.99	-1423.20	 3925.54	    102.0926	       0	(  6  6  0)	  0  1
      6.4430	 4441.00	 4354.25	-1452.46	 3909.80	    102.0926	       0	(  8  2  2)	  0  1
      6.4690	 4464.00	 4338.71	-1413.93	 3894.26	    102.4466	       0	(  6  6  0)	  0  2
      6.4950	 4503.00	 4323.38	-1359.60	 3878.92	    102.4466	       0	(  8  2  2)	  0  2
      6.5210	 4433.00	 4308.26	-1414.47	 3863.78	    105.0731	       0	(  7  5  1)	  0  1
      6.5470	 4322.00	 4293.33	-1510.54	 3848.84	    105.0731	       0	(  5  5  5)	  0  1
      6.5730	 4241.00	 4278.59	-1576.81	 3834.10	    105.4467	       0	(  7  5  1)	  0  2
      6.5990	 4293.00	 4264.06	-1510.27	 3819.56	    105.4467	       0	(  5  5  5)	  0  2
      6.6250	 4436.00	 4249.71	-1352.92	 3805.20	    106.0757	       0	(  6  6  2)	  0  1
      6.6510	 4439.00	 4235.55	-1335.76	 3791.03	    106.4561	       0	(  6  6  2)	  0  2
      6.6770	 4377.00	 4221.58	-1383.79	 3777.05	    110.1413	       0	(  8  4  0)	  0  1
      6.7030	 4313.00	 4207.79	-1434.00	 3763.25	    110.5515	       0	(  8  4  0)	  0  2
      6.7290	 4371.00	 4194.18	-1362.39	 3749.64	    113.2610	       0	(  7  5  3)	  0  1
      6.7550	 4362.00	 4180.75	-1357.96	 3736.20	    113.2610	       0	(  9  1  1)	  0  1
      6.7810	 4311.00	 4167.49	-1395.70	 3722.93	    113.6961	       0	(  7  5  3)	  0  2
      6.8070	 4202.00	 4154.41	-1491.62	 3709.84	    113.6961	       0	(  9  1  1)	  0  2
      6.8330	 4254.00	 4141.50	-1426.71	 3696.92	    114.3170	       0	(  8  4  2)	  0  1
      6.8590	 4261.00	 4128.76	-1406.97	 3684.17	    114.7609	       0	(  8  4  2)	  0  2
      6.8850	 4275.00	 4116.18	-1380.39	 3671.59	    118.6364	       0	(  6  6  4)	  0  1
      6.9110	 4198.00	 4103.77	-1444.98	 3659.17	    119.1198	       0	(  6  6  4)	  0  2
      6.9370	 4094.00	 4091.52	-1536.73	 3646.91	    121.9962	       0	(  9  3  1)	  0  1
      6.9630	 4026.00	 4079.43	-1592.64	 3634.81	    122.5138	       0	(  9  3  1)	  0  2
      6.9890	 4115.00	 4067.49	-1491.71	 3622.87	    127.8973	       0	(  8  4  4)	  0  1
      7.0150	 4173.00	 4055.71	-1421.93	 3611.08	    128.4851	       0	(  8  4  4)	  0  2
      7.0410	 4201.00	 4044.09	-1382.30	 3599.44	    131.6746	       0	(  7  5  5)	  0  1
      7.0670	 4112.00	 4032.61	-1459.82	 3587.96	    131.6746	       0	(  7  7  1)	  0  1
      7.0930	 4024.00	 4021.28	-1536.50	 3576.62	    131.6746	       0	(  9  3  3)	  0  1
      7.1190	 4152.00	 4010.10	-1397.31	 3565.43	    132.3159	       0	(  7  5  5)	  0  2
      7.1450	 4196.00	 3999.07	-1342.28	 3554.39	    132.3159	       0	(  7  7  1)	  0  2
      7.1710	 4148.00	 3988.17	-1379.38	 3543.48	    132.3159	       0	(  9  3  3)	  0  2
      7.1970	 4119.00	 3977.42	-1397.63	 3532.72	    138.5352	       0	(  8  6  2)	  0  1
      7.2230	 4095.00	 3966.80	-1411.01	 3522.09	    138.5352	       0	( 10  2  0)	  0  1
      7.2490	 4038.00	 3956.32	-1457.53	 3511.60	    139.2977	       0	(  8  6  2)	  0  2
      7.2750	 4036.00	 3945.97	-1449.18	 3501.25	    139.2977	       0	( 10  2  0)	  0  2
      7.3010	 4046.00	 3935.75	-1428.97	 3491.02	    143.1373	       0	(  7  7  3)	  0  1
      7.3270	 4046.00	 3925.67	-1418.88	 3480.93	    143.1373	       0	(  9  5  1)	  0  1
      7.3530	 4028.00	 3915.71	-1426.92	 3470.96	    144.0061	       0	(  7  7  3)	  0  2
      7.3790	 4048.00	 3905.88	-1397.09	 3461.12	    144.0061	       0	(  9  5  1)	  0  2
      7.4050	 3979.00	 3896.18	-1456.39	 3451.41	    144.7844	       0	(  6  6  6)	  0  1
      7.4310	 3972.00	 3886.59	-1453.81	 3441.82	    144.7844	       0	( 10  2  2)	  0  1
      7.4570	 3876.00	 3877.13	-1540.34	 3432.35	    145.6980	       0	(  6  6  6)	  0  2
      7.4830	 3927.00	 3867.79	-1480.00	 3423.00	    145.6979	       0	( 10  2  2)	  0  2
      7.5090	 3954.00	 3858.56	-1443.78	 3413.76	    159.3186	       0	(  9  5  3)	  0  1
      7.5350	 3918.00	 3849.45	-1470.67	 3404.64	    160.9577	       0	(  9  5  3)	  0  2
      7.5610	 3856.00	 3840.46	-1523.67	 3395.64	    162.2789	       0	(  8  6  4)	  0  1
      7.5870	 3952.00	 3831.57	-1418.79	 3386.75	    164.2320	       0	(  8  6  4)	  0  2
      7.6130	 3901.00	 3822.80	-1461.01	 3377.96
      7.6390	 3898.00	 3814.14	-1455.35	 3369.29
      7.6650	 4024.00	 3805.58	-1320.79	 3360.72
      7.6910	 3978.00	 3797.13	-1358.34	 3352.26
      7.7170	 3904.00	 3788.78	-1423.99	 3343.91
      7.7430	 3947.00	 3780.54	-1372.75	 3335.65
      7.7690	 3905.00	 3772.39	-1406.60	 3327.50
      7.7950	 3823.00	 3764.35	-1480.56	 3319.45
      7.8210	 3888.00	 3756.40	-1407.61	 3311.49
      7.8470	 3788.00	 3748.55	-1499.76	 3303.63
      7.8730	 3874.00	 3740.79	-1406.00	 3295.87
      7.8990	 3837.00	 3733.13	-1435.34	 3288.20
      7.9250	 3949.00	 3725.56	-1315.77	 3280.61
      7.9510	 3735.00	 3718.08	-1522.29	 3273.13
      7.9770	 3807.00	 3710.69	-1442.90	 3265.73
      8.0030	 3799.00	 3703.38	-1443.60	 3258.41
      8.0290	 3751.00	 3696.17	-1484.38	 3251.19
      8.0550	 3635.00	 3689.04	-1593.25	 3244.05
      8.0810	 3704.00	 3681.99	-1517.20	 3236.99
      8.1070	 3683.00	 3675.02	-1531.24	 3230.02
      8.1330	 3624.00	 3668.14	-1583.35	 3223.12
      8.1590	 3658.00	 3661.34	-1542.55	 3216.31
      8.1850	 3634.00	 3654.61	-1559.82	 3209.57
      8.2110	 3732.00	 3647.96	-1455.17	 3202.91
      8.2370	 3660.00	 3641.39	-1520.60	 3196.33
      8.2630	 3705.00	 3634.89	-1469.10	 3189.83
      8.2890	 3691.00	 3628.47	-1476.68	 3183.39
      8.3150	 3636.00	 3622.12	-1525.33	 3177.03
      8.3410	 3585.00	 3615.84	-1570.05	 3170.75
      8.3670	 3614.00	 3609.63	-1534.84	 3164.53
      8.3930	 3660.00	 3603.49	-1482.70	 3158.38
      8.4190	 3674.00	 3597.42	-1462.63	 3152.30
      8.4450	 3631.00	 3591.41	-1499.62	 3146.28
      8.4710	 3529.00	 3585.47	-1595.68	 3140.33
      8.4970	 3601.00	 3579.60	-1517.81	 3134.45
      8.5230	 3638.00	 3573.79	-1475.00	 3128.63
      8.5490	 3657.00	 3568.04	-1450.25	 3122.87
      8.5750	 3660.00	 3562.35	-1441.56	 3117.18
      8.6010	 3620.00	 3556.73	-1475.94	 3111.54
      8.6270	 3664.00	 3551.16	-1426.37	 3105.97
      8.6530	 3608.00	 3545.65	-1476.87	 3100.45
      8.6790	 3541.00	 3540.20	-1538.42	 3094.99
      8.7050	 3531.00	 3534.81	-1543.02	 3089.59
      8.7310	 3498.00	 3529.48	-1570.69	 3084.24
      8.7570	 3577.00	 3524.20	-1486.41	 3078.95
      8.7830	 3610.00	 3518.97	-1448.18	 3073.71
      8.8090	 3557.00	 3513.79	-1496.01	 3068.53
      8.8350	 3457.00	 3508.67	-1590.88	 3063.40
      8.8610	 3526.00	 3503.60	-1516.82	 3058.32
      8.8870	 3580.00	 3498.58	-1457.80	 3053.29
      8.9130	 3526.00	 3493.61	-1506.83	 3048.31
      8.9390	 3497.00	 3488.69	-1530.91	 3043.38
      8.9650	 3506.00	 3483.82	-1517.03	 3038.50
      8.9910	 3507.00	 3479.00	-1511.21	 3033.67
      9.0170	 3478.00	 3474.22	-1535.43	 3028.88
      9.0430	 3482.00	 3469.49	-1526.70	 3024.14
      9.0690	 3464.00	 3464.80	-1540.01	 3019.44
      9.0950	 3453.00	 3460.16	-1546.37	 3014.79
      9.1210	 3458.00	 3455.56	-1536.77	 3010.18
      9.1470	 3472.00	 3451.00	-1518.21	 3005.61
      9.1730	 3421.00	 3446.49	-1564.70	 3001.09
      9.1990	 3376.00	 3442.02	-1605.23	 2996.60
      9.2250	 3405.00	 3437.58	-1571.80	 2992.16
      9.2510	 3484.00	 3433.19	-1488.40	 2987.76
      9.2770	 3463.00	 3428.84	-1505.05	 2983.40
      9.3030	 3377.00	 3424.53	-1586.74	 2979.08
      9.3290	 3393.00	 3420.25	-1566.46	 2974.79
      9.3550	 3332.00	 3416.01	-1623.23	 2970.54
      9.3810	 3366.00	 3411.81	-1585.03	 2966.33
      9.4070	 3344.00	 3407.65	-1602.86	 2962.16
      9.4330	 3492.00	 3403.52	-1450.73	 2958.02
      9.4590	 3605.00	 3399.43	-1333.64	 2953.92
      9.4850	 3555.00	 3395.37	-1379.58	 2949.85
      9.5110	 3439.00	 3391.34	-1491.56	 2945.81
      9.5370	 3313.00	 3387.35	-1613.56	 2941.81
      9.5630	 3292.00	 3383.39	-1630.61	 2937.84
      9.5890	 3281.00	 3379.47	-1637.68	 2933.91
      9.6150	 3294.00	 3375.57	-1620.79	 2930.00
      9.6410	 3294.00	 3371.71	-1616.92	 2926.13
      9.6670	 3249.00	 3367.88	-1658.09	 2922.29
      9.6930	 3201.00	 3364.08	-1702.29	 2918.47
      9.7190	 3252.00	 3360.30	-1647.52	 2914.69
      9.7450	 3255.00	 3356.56	-1640.77	 2910.94
      9.7710	 3424.00	 3352.85	-1468.06	 2907.21
      9.7970	 3216.00	 3349.16	-1672.37	 2903.52
      9.8230	 3260.00	 3345.50	-1624.72	 2899.85
      9.8490	 3264.00	 3341.87	-1617.09	 2896.21
      9.8750	 3284.00	 3338.27	-1593.48	 2892.60
      9.9010	 3334.00	 3334.69	-1539.91	 2889.01
      9.9270	 3200.00	 3331.14	-1670.36	 2885.45
      9.9530	 3222.00	 3327.62	-1644.83	 2881.91
      9.9790	 3193.00	 3324.12	-1670.33	 2878.41
     10.0050	 3331.00	 3320.65	-1528.86	 2874.92
     10.0310	 3084.00	 3317.20	-1772.41	 2871.46
     10.0570	 3230.00	 3313.77	-1622.99	 2868.03
     10.0830	 3176.00	 3310.37	-1673.58	 2864.61
     10.1090	 3241.00	 3306.99	-1605.21	 2861.23
     10.1350	 3230.00	 3303.64	-1612.85	 2857.86
     10.1610	 3210.00	 3300.31	-1629.52	 2854.52
     10.1870	 3163.00	 3297.00	-1673.21	 2851.20
     10.2130	 3196.00	 3293.71	-1636.92	 2847.90
     10.2390	 3167.00	 3290.45	-1662.66	 2844.62
     10.2650	 3237.00	 3287.20	-1589.42	 2841.37
     10.2910	 3125.00	 3283.98	-1698.19	 2838.14
     10.3170	 3188.00	 3280.78	-1631.99	 2834.92
     10.3430	 3139.00	 3277.60	-1677.81	 2831.73
     10.3690	 3116.00	 3274.44	-1697.65	 2828.56
     10.3950	 3037.00	 3271.30	-1773.51	 2825.41
     10.4210	 3085.00	 3268.18	-1722.39	 2822.28
     10.4470	 3252.00	 3265.08	-1552.29	 2819.17
     10.4730	 3074.00	 3261.99	-1727.21	 2816.07
     10.4990	 3161.00	 3258.93	-1637.14	 2813.00
     10.5250	 3148.00	 3255.88	-1647.10	 2809.94
     10.5510	 3080.00	 3252.86	-1712.07	 2806.91
     10.5770	 3137.00	 3249.85	-1652.06	 2803.89
     10.6030	 3192.00	 3246.86	-1594.07	 2800.89
     10.6290	 3097.00	 3243.89	-1686.10	 2797.90
     10.6550	 3155.00	 3240.94	-1625.15	 2794.94
     10.6810	 3061.00	 3238.00	-1716.21	 2791.99
     10.7070	 3039.00	 3235.08	-1735.29	 2789.06
     10.7330	 3196.00	 3232.17	-1575.39	 2786.15
     10.7590	 3191.00	 3229.29	-1577.50	 2783.25
     10.7850	 3189.00	 3226.42	-1576.63	 2780.37
     10.8110	 3215.00	 3223.56	-1547.78	 2777.50
     10.8370	 3199.00	 3220.73	-1560.94	 2774.65
     10.8630	 3091.00	 3217.91	-1666.12	 2771.82
     10.8890	 3093.00	 3215.10	-1661.31	 2769.00
     10.9150	 3106.00	 3212.31	-1645.52	 2766.20
     10.9410	 3097.00	 3209.54	-1651.75	 2763.42
     10.9670	 3052.00	 3206.78	-1693.99	 2760.65
     10.9930	 3099.00	 3204.03	-1644.25	 2757.89
     11.0190	 3131.00	 3201.30	-1609.52	 2755.15
     11.0450	 3160.00	 3198.59	-1577.80	 2752.43
     11.0710	 3150.00	 3195.89	-1585.10	 2749.72
     11.0970	 3212.00	 3193.21	-1520.42	 2747.02
     11.1230	 3186.00	 3190.54	-1543.75	 2744.34
     11.1490	 3173.00	 3187.88	-1554.09	 2741.67
     11.1750	 3136.00	 3185.24	-1588.45	 2739.02
     11.2010	 3048.00	 3182.61	-1673.82	 2736.38
     11.2270	 3063.00	 3180.00	-1656.21	 2733.75
     11.2530	 3070.00	 3177.40	-1646.61	 2731.14
     11.2790	 3056.00	 3174.81	-1658.03	 2728.55
     11.3050	 3111.00	 3172.24	-1600.46	 2725.96
     11.3310	 3124.00	 3169.68	-1584.90	 2723.39
     11.3570	 3084.00	 3167.14	-1622.35	 2720.84
     11.3830	 3106.00	 3164.61	-1597.82	 2718.30
     11.4090	 3154.00	 3162.09	-1547.30	 2715.77
     11.4350	 3099.00	 3159.59	-1599.80	 2713.25
     11.4610	 3058.00	 3157.10	-1638.31	 2710.75
     11.4870	 3112.00	 3154.62	-1581.83	 2708.26
     11.5130	 3151.00	 3152.15	-1540.37	 2705.78
     11.5390	 3143.00	 3149.70	-1545.91	 2703.32
     11.5650	 3149.00	 3147.26	-1537.48	 2700.87
     11.5910	 3142.00	 3144.84	-1542.05	 2698.43
     11.6170	 3085.00	 3142.42	-1596.64	 2696.00
     11.6430	 3074.00	 3140.02	-1605.24	 2693.59
     11.6690	 3090.00	 3137.65	-1586.86	 2691.19
     11.6950	 3100.00	 3135.27	-1574.49	 2688.81
     11.7210	 3152.00	 3132.91	-1520.12	 2686.43
     11.7470	 3174.00	 3130.56	-1495.77	 2684.07
     11.7730	 3147.00	 3128.22	-1520.44	 2681.72
     11.7990	 3154.00	 3125.91	-1511.12	 2679.39
     11.8250	 3147.00	 3123.59	-1515.81	 2677.06
     11.8510	 3110.00	 3121.29	-1550.51	 2674.75
     11.8770	 3110.00	 3119.01	-1548.22	 2672.45
     11.9030	 3108.00	 3116.73	-1547.95	 2670.17
     11.9290	 3102.00	 3114.47	-1551.68	 2667.89
     11.9550	 3031.00	 3112.22	-1620.44	 2665.63
     11.9810	 3071.00	 3109.99	-1578.20	 2663.38
     12.0070	 3092.00	 3107.76	-1554.97	 2661.14
     12.0330	 3049.00	 3105.55	-1595.76	 2658.92
     12.0590	 3089.00	 3103.35	-1553.56	 2656.71
     12.0850	 3078.00	 3101.16	-1562.38	 2654.51
     12.1110	 3135.00	 3098.99	-1503.20	 2652.32
     12.1370	 3130.00	 3096.83	-1506.04	 2650.15
     12.1630	 3067.00	 3094.68	-1566.89	 2647.98
     12.1890	 3094.00	 3092.54	-1537.75	 2645.83
     12.2150	 3077.00	 3090.41	-1552.63	 2643.70
     12.2410	 3120.00	 3088.30	-1507.51	 2641.57
     12.2670	 3100.00	 3086.20	-1525.41	 2639.46
     12.2930	 3083.00	 3084.11	-1540.33	 2637.36
     12.3190	 3078.00	 3082.04	-1543.25	 2635.27
     12.3450	 3072.00	 3079.98	-1547.19	 2633.19
     12.3710	 3080.00	 3077.93	-1537.14	 2631.13
     12.3970	 3129.00	 3075.89	-1486.10	 2629.08
     12.4230	 3039.00	 3073.86	-1574.07	 2627.04
     12.4490	 3064.00	 3071.85	-1547.06	 2625.02
     12.4750	 3060.00	 3069.85	-1549.06	 2623.00
     12.5010	 3155.00	 3067.86	-1452.08	 2621.00
     12.5270	 2937.00	 3065.89	-1668.10	 2619.02
     12.5530	 3033.00	 3063.93	-1570.14	 2617.04
     12.5790	 3010.00	 3061.98	-1591.19	 2615.08
     12.6050	 3048.00	 3060.04	-1551.25	 2613.13
     12.6310	 3027.00	 3058.12	-1570.33	 2611.19
     12.6570	 3114.00	 3056.21	-1481.42	 2609.27
     12.6830	 2904.00	 3054.31	-1689.52	 2607.36
     12.7090	 3028.00	 3052.42	-1563.63	 2605.46
     12.7350	 3048.00	 3050.55	-1541.76	 2603.57
     12.7610	 3084.00	 3048.69	-1503.90	 2601.70
     12.7870	 2990.00	 3046.84	-1596.06	 2599.84
     12.8130	 3118.00	 3045.01	-1466.22	 2598.00
     12.8390	 2962.00	 3043.19	-1620.40	 2596.16
     12.8650	 3073.00	 3041.38	-1507.60	 2594.34
     12.8910	 3045.00	 3039.59	-1533.80	 2592.54
     12.9170	 3016.00	 3037.81	-1561.02	 2590.74
     12.9430	 3029.00	 3036.04	-1546.26	 2588.96
     12.9690	 3112.00	 3034.29	-1461.50	 2587.19
     12.9950	 3025.00	 3032.55	-1546.76	 2585.44
     13.0210	 3037.00	 3030.82	-1533.03	 2583.70
     13.0470	 3123.00	 3029.11	-1445.32	 2581.97
     13.0730	 3020.00	 3027.41	-1546.62	 2580.26
     13.0990	 2991.00	 3025.72	-1573.94	 2578.56
     13.1250	 3038.00	 3024.05	-1525.26	 2576.87
     13.1510	 3065.00	 3022.39	-1496.60	 2575.20
     13.1770	 3037.00	 3020.75	-1522.96	 2573.54
     13.2030	 3027.00	 3019.12	-1531.33	 2571.90
     13.2290	 3012.00	 3017.50	-1544.71	 2570.27
     13.2550	 2938.00	 3015.90	-1617.11	 2568.65
     13.2810	 3053.00	 3014.31	-1500.52	 2567.05
     13.3070	 3093.00	 3012.73	-1458.94	 2565.46
     13.3330	 3098.00	 3011.17	-1452.38	 2563.88
     13.3590	 3082.00	 3009.62	-1466.83	 2562.32
     13.3850	 3072.00	 3008.09	-1475.30	 2560.77
     13.4110	 2999.00	 3006.57	-1546.78	 2559.24
     13.4370	 3107.00	 3005.07	-1437.28	 2557.72
     13.4630	 3189.00	 3003.58	-1353.79	 2556.22
     13.4890	 3075.00	 3002.10	-1466.31	 2554.73
     13.5150	 3083.00	 3000.64	-1456.85	 2553.26
     13.5410	 3085.00	 2999.20	-1453.41	 2551.79
     13.5670	 3031.00	 2997.79	-1506.00	 2550.35
     13.5930	 3001.00	 2996.37	-1534.58	 2548.92
     13.6190	 3029.00	 2994.97	-1505.18	 2547.50
     13.6450	 3019.00	 2993.58	-1513.80	 2546.10
     13.6710	 3050.00	 2992.21	-1481.42	 2544.72
     13.6970	 2945.00	 2990.86	-1585.08	 2543.34
     13.7230	 2989.00	 2989.52	-1539.74	 2541.99
     13.7490	 3044.00	 2988.20	-1483.41	 2540.65
     13.7750	 3091.00	 2986.88	-1435.10	 2539.32
     13.8010	 3050.00	 2985.59	-1474.80	 2538.01
     13.8270	 2958.00	 2984.31	-1565.52	 2536.71
     13.8530	 2997.00	 2983.04	-1525.25	 2535.43
     13.8790	 3128.00	 2981.79	-1393.00	 2534.17
     13.9050	 3067.00	 2980.56	-1452.77	 2532.92
     13.9310	 2981.00	 2979.34	-1537.55	 2531.69
     13.9570	 3051.00	 2978.13	-1466.35	 2530.47
     13.9830	 3060.00	 2976.95	-1456.16	 2529.26
     14.0090	 3049.00	 2975.77	-1465.99	 2528.08
     14.0350	 3077.00	 2974.62	-1436.83	 2526.91
     14.0610	 3056.00	 2973.48	-1456.69	 2525.75
     14.0870	 2979.00	 2972.35	-1532.57	 2524.61
     14.1130	 2972.00	 2971.25	-1538.46	 2523.49
     14.1390	 3002.00	 2970.15	-1507.37	 2522.38
     14.1650	 3030.00	 2969.10	-1478.31	 2521.29
     14.1910	 3025.00	 2968.04	-1482.25	 2520.21
     14.2170	 2963.00	 2966.99	-1543.21	 2519.15
     14.2430	 2960.00	 2965.97	-1545.18	 2518.11
     14.2690	 2969.00	 2964.95	-1535.17	 2517.08
     14.2950	 2926.00	 2964.09	-1577.30	 2516.07
     14.3210	 2942.00	 2963.11	-1560.32	 2515.08
     14.3470	 2969.00	 2962.15	-1532.36	 2514.10
     14.3730	 2922.00	 2961.20	-1578.41	 2513.14
     14.3990	 2918.00	 2960.27	-1581.49	 2512.20
     14.4250	 2954.00	 2959.36	-1544.57	 2511.27
     14.4510	 2959.00	 2958.47	-1538.68	 2510.36
     14.4770	 2974.00	 2957.59	-1522.80	 2509.47
     14.5030	 3007.00	 2956.73	-1488.94	 2508.59
     14.5290	 2960.00	 2955.88	-1535.09	 2507.73
     14.5550	 3025.00	 2955.05	-1469.27	 2506.88
     14.5810	 3046.00	 2954.24	-1447.46	 2506.06
     14.6070	 2987.00	 2953.45	-1505.66	 2505.25
     14.6330	 2904.00	 2952.68	-1587.89	 2504.46
     14.6590	 2884.00	 2951.92	-1607.13	 2503.68
     14.6850	 2941.00	 2951.17	-1549.39	 2502.92
     14.7110	 2918.00	 2950.45	-1571.66	 2502.18
     14.7370	 2966.00	 2949.74	-1522.96	 2501.46
     14.7630	 2917.00	 2949.05	-1571.27	 2500.75
     14.7890	 2850.00	 2948.38	-1637.59	 2500.07
     14.8150	 2888.00	 2947.73	-1598.94	 2499.39
     14.8410	 2978.00	 2947.09	-1508.30	 2498.74
     14.8670	 2903.00	 2946.47	-1582.68	 2498.10
     14.8930	 2824.00	 2945.87	-1661.08	 2497.49
     14.9190	 2851.00	 2945.28	-1633.50	 2496.88
     14.9450	 2855.00	 2944.72	-1628.93	 2496.30
     14.9710	 2922.00	 2944.17	-1561.38	 2495.74
     14.9970	 2899.00	 2943.64	-1583.85	 2495.19
     15.0230	 2829.00	 2943.12	-1653.34	 2494.66
     15.0490	 2821.00	 2942.63	-1660.84	 2494.15
     15.0750	 2926.00	 2942.15	-1555.36	 2493.65
     15.1010	 2899.00	 2941.92	-1582.14	 2493.18
     15.1270	 2833.00	 2941.48	-1647.70	 2492.72
     15.1530	 2817.00	 2941.06	-1663.27	 2492.28
     15.1790	 2878.00	 2940.66	-1601.87	 2491.85
     15.2050	 2852.00	 2940.27	-1627.48	 2491.45
     15.2310	 2796.00	 2939.90	-1683.11	 2491.06
     15.2570	 2894.00	 2939.55	-1584.76	 2490.70
     15.2830	 2907.00	 2939.22	-1571.43	 2490.35
     15.3090	 2907.00	 2938.90	-1571.12	 2490.02
     15.3350	 2949.00	 2938.61	-1528.82	 2489.70
     15.3610	 2889.00	 2938.33	-1588.54	 2489.41
     15.3870	 2883.00	 2938.07	-1594.28	 2489.13
     15.4130	 2803.00	 2937.83	-1674.04	 2488.87
     15.4390	 2831.00	 2937.61	-1645.82	 2488.63
     15.4650	 2893.00	 2937.40	-1583.62	 2488.41
     15.4910	 2925.00	 2937.22	-1551.43	 2488.21
     15.5170	 2902.00	 2937.05	-1574.27	 2488.02
     15.5430	 2959.00	 2936.90	-1517.12	 2487.86
     15.5690	 2915.00	 2936.77	-1560.99	 2487.71
     15.5950	 2836.00	 2936.66	-1639.88	 2487.58
     15.6210	 2889.00	 2936.57	-1586.78	 2487.47
     15.6470	 2828.00	 2936.50	-1647.71	 2487.38
     15.6730	 2960.00	 2936.44	-1515.65	 2487.30
     15.6990	 2965.00	 2936.41	-1510.62	 2487.25
     15.7250	 2908.00	 2936.39	-1567.60	 2487.21
     15.7510	 2946.00	 2936.39	-1529.60	 2487.19
     15.7770	 2939.00	 2936.41	-1536.62	 2487.19
     15.8030	 2920.00	 2936.45	-1555.66	 2487.21
     15.8290	 2872.00	 2936.50	-1603.72	 2487.25
     15.8550	 2920.00	 2936.58	-1555.79	 2487.31
     15.8810	 3007.00	 2936.68	-1468.89	 2487.39
     15.9070	 2985.00	 2936.79	-1491.00	 2487.48
     15.9330	 2947.00	 2936.92	-1529.13	 2487.59
     15.9590	 2902.00	 2937.07	-1574.28	 2487.72
     15.9850	 2865.00	 2937.24	-1611.45	 2487.88
     16.0110	 2905.00	 2937.43	-1571.64	 2488.04
     16.0370	 2924.00	 2937.64	-1552.85	 2488.23
     16.0630	 2921.00	 2937.86	-1556.08	 2488.44
     16.0890	 2969.00	 2938.11	-1508.32	 2488.67
     16.1150	 2905.00	 2938.38	-1572.59	 2488.91
     16.1410	 2961.00	 2938.66	-1516.87	 2489.17
     16.1670	 2803.00	 2938.96	-1675.17	 2489.46
     16.1930	 2938.00	 2939.28	-1540.49	 2489.76
     16.2190	 2910.00	 2939.62	-1568.83	 2490.08
     16.2450	 2916.00	 2939.98	-1563.19	 2490.41
     16.2710	 2955.00	 2940.36	-1524.57	 2490.77
     16.2970	 2914.00	 2940.75	-1565.97	 2491.15
     16.3230	 2923.00	 2941.17	-1557.38	 2491.54
     16.3490	 2974.00	 2941.61	-1506.83	 2491.96
     16.3750	 2988.00	 2942.07	-1493.28	 2492.39
     16.4010	 2977.00	 2942.54	-1504.75	 2492.84
     16.4270	 3066.00	 2943.03	-1416.24	 2493.31
     16.4530	 3077.00	 2943.54	-1405.76	 2493.80
     16.4790	 2992.00	 2944.07	-1491.29	 2494.31
     16.5050	 3048.00	 2944.62	-1435.83	 2494.83
     16.5310	 2949.00	 2945.19	-1535.40	 2495.38
     16.5570	 2908.00	 2945.77	-1576.98	 2495.94
     16.5830	 2984.00	 2946.37	-1501.59	 2496.52
     16.6090	 3028.00	 2947.00	-1458.21	 2497.12
     16.6350	 3020.00	 2947.64	-1466.85	 2497.74
     16.6610	 2989.00	 2948.30	-1498.51	 2498.38
     16.6870	 2975.00	 2948.98	-1513.19	 2499.03
     16.7130	 2942.00	 2949.67	-1546.89	 2499.71
     16.7390	 2957.00	 2950.39	-1532.60	 2500.40
     16.7650	 3022.00	 2951.12	-1468.34	 2501.12
     16.7910	 3016.00	 2951.88	-1475.09	 2501.85
     16.8170	 3054.00	 2952.65	-1437.86	 2502.59
     16.8430	 3104.00	 2953.44	-1388.65	 2503.36
     16.8690	 3043.00	 2954.25	-1450.46	 2504.15
     16.8950	 3011.00	 2955.08	-1483.29	 2504.95
     16.9210	 3019.00	 2955.93	-1476.14	 2505.77
     16.9470	 3040.00	 2956.79	-1456.00	 2506.62
     16.9730	 3031.00	 2957.67	-1465.89	 2507.48
     16.9990	 2975.00	 2958.58	-1522.79	 2508.35
     17.0250	 2998.00	 2959.50	-1500.71	 2509.25
     17.0510	 3047.00	 2960.44	-1452.65	 2510.16
     17.0770	 3062.00	 2961.39	-1438.61	 2511.09
     17.1030	 3027.00	 2962.37	-1474.58	 2512.04
     17.1290	 3031.00	 2963.36	-1471.58	 2513.01
     17.1550	 3102.00	 2964.38	-1401.59	 2514.00
     17.1810	 3077.00	 2965.41	-1427.62	 2515.00
     17.2070	 3012.00	 2966.46	-1493.67	 2516.03
     17.2330	 2985.00	 2967.52	-1521.74	 2517.07
     17.2590	 3049.00	 2968.61	-1458.82	 2518.12
     17.2850	 3091.00	 2969.71	-1417.93	 2519.20
     17.3110	 3002.00	 2970.84	-1508.05	 2520.29
     17.3370	 3085.00	 2971.98	-1426.19	 2521.41
     17.3630	 3020.00	 2973.14	-1492.35	 2522.53
     17.3890	 3021.00	 2974.31	-1492.52	 2523.68
     17.4150	 3088.00	 2975.51	-1426.72	 2524.85
     17.4410	 3081.00	 2976.72	-1434.93	 2526.03
     17.4670	 3044.00	 2977.95	-1473.16	 2527.23
     17.4930	 3057.00	 2979.20	-1461.41	 2528.45
     17.5190	 3135.00	 2980.47	-1384.68	 2529.68
     17.5450	 3093.00	 2981.75	-1427.96	 2530.93
     17.5710	 3096.00	 2983.05	-1426.26	 2532.20
     17.5970	 3080.00	 2984.37	-1443.58	 2533.49
     17.6230	 3163.00	 2985.71	-1361.92	 2534.79
     17.6490	 3101.00	 2987.07	-1425.28	 2536.11
     17.6750	 3012.00	 2988.44	-1515.65	 2537.45
     17.7010	 3062.00	 2989.83	-1467.04	 2538.80
     17.7270	 3075.00	 2991.24	-1455.45	 2540.17
     17.7530	 3150.00	 2992.66	-1381.87	 2541.56
     17.7790	 3061.00	 2994.10	-1472.31	 2542.97
     17.8050	 3014.00	 2995.56	-1520.77	 2544.39
     17.8310	 3092.00	 2997.03	-1444.25	 2545.83
     17.8570	 3134.00	 2998.53	-1403.74	 2547.28
     17.8830	 3041.00	 3000.09	-1498.30	 2548.76
     17.9090	 3107.00	 3001.61	-1433.82	 2550.25
     17.9350	 3076.00	 3003.15	-1466.36	 2551.75
     17.9610	 3056.00	 3004.71	-1487.92	 2553.27
     17.9870	 3030.00	 3006.28	-1515.49	 2554.81
     18.0130	 3002.00	 3007.89	-1545.10	 2556.36
     18.0390	 3229.00	 3009.49	-1319.70	 2557.93
     18.0650	 3146.00	 3011.10	-1404.32	 2559.52
     18.0910	 3129.00	 3012.73	-1422.95	 2561.12
     18.1170	 3058.00	 3014.38	-1495.59	 2562.74
     18.1430	 3052.00	 3016.04	-1503.25	 2564.37
     18.1690	 3090.00	 3017.71	-1466.92	 2566.02
     18.1950	 3057.00	 3019.39	-1501.61	 2567.69
     18.2210	 3110.00	 3021.09	-1450.31	 2569.37
     18.2470	 3151.00	 3022.81	-1411.02	 2571.06
     18.2730	 3093.00	 3024.54	-1470.75	 2572.78
     18.2990	 3046.00	 3026.28	-1519.49	 2574.50
     18.3250	 3015.00	 3028.04	-1552.25	 2576.25
     18.3510	 3017.00	 3029.81	-1552.02	 2578.00
     18.3770	 3050.00	 3031.60	-1520.81	 2579.78
     18.4030	 3040.00	 3033.40	-1532.61	 2581.56
     18.4290	 3067.00	 3035.22	-1507.43	 2583.37
     18.4550	 3152.00	 3037.05	-1424.26	 2585.18
     18.4810	 3161.00	 3038.89	-1417.10	 2587.02
     18.5070	 3056.00	 3040.75	-1523.96	 2588.86
     18.5330	 3100.00	 3042.63	-1481.84	 2590.73
     18.5590	 3027.00	 3044.52	-1556.73	 2592.60
     18.5850	 3098.00	 3046.42	-1487.63	 2594.49
     18.6110	 3091.00	 3048.68	-1496.89	 2596.40
     18.6370	 3115.00	 3050.61	-1474.83	 2598.32
     18.6630	 3149.00	 3052.56	-1442.77	 2600.25
     18.6890	 3138.00	 3054.52	-1455.74	 2602.20
     18.7150	 3087.00	 3056.50	-1508.72	 2604.16
     18.7410	 3062.00	 3058.50	-1535.71	 2606.14
     18.7670	 3124.00	 3060.50	-1475.71	 2608.13
     18.7930	 3075.00	 3062.52	-1526.74	 2610.13
     18.8190	 3100.00	 3064.56	-1503.77	 2612.15
     18.8450	 3137.00	 3066.61	-1468.82	 2614.18
     18.8710	 3125.00	 3068.67	-1482.88	 2616.22
     18.8970	 3114.00	 3070.75	-1495.96	 2618.28
     18.9230	 3087.00	 3072.84	-1525.05	 2620.35
     18.9490	 3168.00	 3074.94	-1446.15	 2622.43
     18.9750	 3118.00	 3077.06	-1498.27	 2624.53
     19.0010	 3130.00	 3079.19	-1488.40	 2626.64
     19.0270	 3137.00	 3081.33	-1483.54	 2628.76
     19.0530	 3078.00	 3083.49	-1544.70	 2630.89
     19.0790	 3016.00	 3085.66	-1608.87	 2633.04
     19.1050	 2995.00	 3087.84	-1632.05	 2635.20
     19.1310	 3054.00	 3090.04	-1575.25	 2637.37
     19.1570	 3053.00	 3092.93	-1579.14	 2639.55
     19.1830	 3127.00	 3095.15	-1507.36	 2641.75
     19.2090	 3157.00	 3097.38	-1479.59	 2643.96
     19.2350	 3106.00	 3099.63	-1532.84	 2646.18
     19.2610	 3082.00	 3101.89	-1559.10	 2648.41
     19.2870	 3090.00	 3104.16	-1553.37	 2650.66
     19.3130	 3094.00	 3106.44	-1551.65	 2652.91
     19.3390	 3123.00	 3108.73	-1524.94	 2655.18
     19.3650	 3148.00	 3111.04	-1502.25	 2657.46
     19.3910	 3127.00	 3113.35	-1525.57	 2659.75
     19.4170	 3136.00	 3115.68	-1518.89	 2662.05
     19.4430	 3098.00	 3118.02	-1559.23	 2664.36
     19.4690	 3039.00	 3120.37	-1620.59	 2666.69
     19.4950	 3034.00	 3122.74	-1627.95	 2669.02
     19.5210	 3018.00	 3125.11	-1646.32	 2671.36
     19.5470	 3085.00	 3127.49	-1581.71	 2673.72
     19.5730	 3159.00	 3129.89	-1510.10	 2676.09
     19.5990	 3152.00	 3132.29	-1519.51	 2678.46
     19.6250	 3139.00	 3134.71	-1534.92	 2680.85
     19.6510	 3157.00	 3137.14	-1519.35	 2683.25
     19.6770	 3182.00	 3139.57	-1496.78	 2685.65
     19.7030	 3112.00	 3142.02	-1569.23	 2688.07
     19.7290	 3104.00	 3144.48	-1579.69	 2690.50
     19.7550	 3120.00	 3146.94	-1566.15	 2692.93
     19.7810	 3178.00	 3149.42	-1510.63	 2695.38
     19.8070	 3150.00	 3151.90	-1541.12	 2697.83
     19.8330	 3093.00	 3154.40	-1600.61	 2700.30
     19.8590	 3136.00	 3156.90	-1560.12	 2702.77
     19.8850	 3210.00	 3159.42	-1488.63	 2705.26
     19.9110	 3208.00	 3161.94	-1493.16	 2707.75
     19.9370	 3167.00	 3164.48	-1536.69	 2710.25
     19.9630	 3223.00	 3167.02	-1483.23	 2712.76
     19.9890	 3215.00	 3169.57	-1493.78	 2715.28
     20.0150	 3202.00	 3172.13	-1509.34	 2717.80
     20.0410	 3178.00	 3174.69	-1535.91	 2720.34
     20.0670	 3160.00	 3177.27	-1556.48	 2722.88
     20.0930	 3224.00	 3179.85	-1495.07	 2725.44
     20.1190	 3267.00	 3182.45	-1454.66	 2727.99
     20.1450	 3238.00	 3185.05	-1486.26	 2730.56
     20.1710	 3192.00	 3187.65	-1534.87	 2733.14
     20.1970	 3211.00	 3190.27	-1518.48	 2735.72
     20.2230	 3212.00	 3192.89	-1520.11	 2738.31
     20.2490	 3153.00	 3195.53	-1581.74	 2740.91
     20.2750	 3133.00	 3198.20	-1604.41	 2743.51
     20.3010	 3140.00	 3200.84	-1600.05	 2746.13
     20.3270	 3157.00	 3203.49	-1585.71	 2748.74
     20.3530	 3209.00	 3206.16	-1536.37	 2751.37
     20.3790	 3199.00	 3208.82	-1549.03	 2754.00
     20.4050	 3320.00	 3211.51	-1430.72	 2756.64
     20.4310	 3252.00	 3214.19	-1501.41	 2759.29
     20.4570	 3290.00	 3216.88	-1466.09	 2761.94
     20.4830	 3356.00	 3219.57	-1402.79	 2764.60
     20.5090	 3144.00	 3222.27	-1617.49	 2767.26
     20.5350	 3292.00	 3224.98	-1472.19	 2769.93
     20.5610	 3185.00	 3227.69	-1581.91	 2772.61
     20.5870	 3238.00	 3230.41	-1531.62	 2775.29
     20.6130	 3281.00	 3233.13	-1491.35	 2777.98
     20.6390	 3371.00	 3235.86	-1404.08	 2780.67
     20.6650	 3316.00	 3238.60	-1461.81	 2783.37
     20.6910	 3164.00	 3241.34	-1616.55	 2786.07
     20.7170	 3333.00	 3244.08	-1450.30	 2788.78
     20.7430	 3367.00	 3246.84	-1419.05	 2791.50
     20.7690	 3300.00	 3249.59	-1488.80	 2794.21
     20.7950	 3242.00	 3252.35	-1549.56	 2796.94
     20.8210	 3256.00	 3255.12	-1538.33	 2799.66
     20.8470	 3231.00	 3257.89	-1566.10	 2802.40
     20.8730	 3257.00	 3260.66	-1542.87	 2805.13
     20.8990	 3321.00	 3263.44	-1481.65	 2807.87
     20.9250	 3208.00	 3266.22	-1597.44	 2810.62
     20.9510	 3373.00	 3269.01	-1435.22	 2813.36
     20.9770	 3213.00	 3271.80	-1598.01	 2816.12
     21.0030	 3259.00	 3274.60	-1554.81	 2818.87
     21.0290	 3276.00	 3277.40	-1540.61	 2821.63
     21.0550	 3159.00	 3280.20	-1660.41	 2824.39
     21.0810	 3268.00	 3283.00	-1554.21	 2827.16
     21.1070	 3326.00	 3285.81	-1499.02	 2829.93
     21.1330	 3313.00	 3288.62	-1514.83	 2832.70
     21.1590	 3310.00	 3291.44	-1520.65	 2835.47
     21.1850	 3189.00	 3294.25	-1644.47	 2838.25
     21.2110	 3348.00	 3297.08	-1488.29	 2841.03
     21.2370	 3277.00	 3299.90	-1562.11	 2843.81
     21.2630	 3305.00	 3302.72	-1536.94	 2846.59
     21.2890	 3363.00	 3305.55	-1481.76	 2849.38
     21.3150	 3375.00	 3308.38	-1472.59	 2852.17
     21.3410	 3380.00	 3311.21	-1470.43	 2854.96
     21.3670	 3311.00	 3314.05	-1542.26	 2857.75
     21.3930	 3291.00	 3316.88	-1565.10	 2860.54
     21.4190	 3299.00	 3319.72	-1559.93	 2863.34
     21.4450	 3310.00	 3322.56	-1551.77	 2866.14
     21.4710	 3276.00	 3325.40	-1588.61	 2868.93
     21.4970	 3360.00	 3328.24	-1507.46	 2871.73
     21.5230	 3322.00	 3331.09	-1548.30	 2874.53
     21.5490	 3403.00	 3333.93	-1470.14	 2877.33
     21.5750	 3404.00	 3337.11	-1472.32	 2880.13
     21.6010	 3379.00	 3339.96	-1500.17	 2882.93
     21.6270	 3384.00	 3342.80	-1498.02	 2885.73
     21.6530	 3388.00	 3345.65	-1496.86	 2888.54
     21.6790	 3346.00	 3348.67	-1541.88	 2891.34
     21.7050	 3388.00	 3351.51	-1502.73	 2894.14
     21.7310	 3370.00	 3354.36	-1523.57	 2896.94
     21.7570	 3374.00	 3357.21	-1522.42	 2899.74
     21.7830	 3354.00	 3360.06	-1545.27	 2902.55
     21.8090	 3324.00	 3362.91	-1578.12	 2905.35
     21.8350	 3356.00	 3365.75	-1548.97	 2908.15
     21.8610	 3402.00	 3368.60	-1505.81	 2910.95
     21.8870	 3389.00	 3371.45	-1521.66	 2913.74
     21.9130	 3373.00	 3374.29	-1540.50	 2916.54
     21.9390	 3425.00	 3377.13	-1491.35	 2919.34
     21.9650	 3436.00	 3379.98	-1483.19	 2922.13
     21.9910	 3393.00	 3382.82	-1529.03	 2924.93
     22.0170	 3413.00	 3385.66	-1511.87	 2927.72
     22.0430	 3483.00	 3388.50	-1444.71	 2930.51
     22.0690	 3505.00	 3391.34	-1425.55	 2933.29
     22.0950	 3432.00	 3394.17	-1501.38	 2936.08
     22.1210	 3394.00	 3397.01	-1542.22	 2938.86
     22.1470	 3439.00	 3399.84	-1500.05	 2941.65
     22.1730	 3414.00	 3402.67	-1527.88	 2944.43
     22.1990	 3414.00	 3405.50	-1530.71	 2947.20
     22.2250	 3434.00	 3408.32	-1513.53	 2949.98
     22.2510	 3400.00	 3411.14	-1550.36	 2952.75
     22.2770	 3448.00	 3413.96	-1505.18	 2955.52
     22.3030	 3425.00	 3416.78	-1530.99	 2958.28
     22.3290	 3367.00	 3419.60	-1591.81	 2961.04
     22.3550	 3405.00	 3422.41	-1556.62	 2963.80
     22.3810	 3461.00	 3425.21	-1503.43	 2966.56
     22.4070	 3487.00	 3428.02	-1480.23	 2969.31
     22.4330	 3463.00	 3430.82	-1507.03	 2972.06
     22.4590	 3451.00	 3433.62	-1521.83	 2974.80
     22.4850	 3406.00	 3436.41	-1569.63	 2977.54
     22.5110	 3543.00	 3439.21	-1435.42	 2980.28
     22.5370	 3467.00	 3441.99	-1514.20	 2983.01
     22.5630	 3502.00	 3444.77	-1481.99	 2985.74
     22.5890	 3539.00	 3447.55	-1447.77	 2988.46
     22.6150	 3466.00	 3450.33	-1523.54	 2991.18
     22.6410	 3324.00	 3453.10	-1668.31	 2993.89
     22.6670	 3427.00	 3455.86	-1568.08	 2996.60
     22.6930	 3510.00	 3458.62	-1487.84	 2999.30
     22.7190	 3556.00	 3461.38	-1444.59	 3002.00
     22.7450	 3486.00	 3464.13	-1517.34	 3004.70
     22.7710	 3460.00	 3466.88	-1546.09	 3007.38
     22.7970	 3548.00	 3469.62	-1460.83	 3010.07
     22.8230	 3457.00	 3472.35	-1554.57	 3012.74
     22.8490	 3556.00	 3475.09	-1458.30	 3015.42
     22.8750	 3532.00	 3477.81	-1485.02	 3018.08
     22.9010	 3521.00	 3480.53	-1498.74	 3020.74
     22.9270	 3527.00	 3483.24	-1495.46	 3023.39
     22.9530	 3516.00	 3485.95	-1509.16	 3026.04
     22.9790	 3468.00	 3488.65	-1559.87	 3028.68
     23.0050	 3508.00	 3491.35	-1522.56	 3031.31
     23.0310	 3540.00	 3494.04	-1493.25	 3033.94
     23.0570	 3465.00	 3496.79	-1571.00	 3036.56
     23.0830	 3424.00	 3499.47	-1614.68	 3039.18
     23.1090	 3569.00	 3502.14	-1472.35	 3041.78
     23.1350	 3550.00	 3504.80	-1494.01	 3044.38
     23.1610	 3564.00	 3507.46	-1482.67	 3046.98
     23.1870	 3545.00	 3510.11	-1504.32	 3049.56
     23.2130	 3610.00	 3512.75	-1441.96	 3052.14
     23.2390	 3605.00	 3515.39	-1449.60	 3054.71
     23.2650	 3534.00	 3518.01	-1523.23	 3057.27
     23.2910	 3510.00	 3520.63	-1549.85	 3059.83
     23.3170	 3570.00	 3523.25	-1492.46	 3062.37
     23.3430	 3567.00	 3525.99	-1498.21	 3064.91
     23.3690	 3534.00	 3528.59	-1533.80	 3067.44
     23.3950	 3525.00	 3531.18	-1545.39	 3069.96
     23.4210	 3588.00	 3533.76	-1484.98	 3072.48
     23.4470	 3551.00	 3536.59	-1524.80	 3074.98
     23.4730	 3583.00	 3539.15	-1495.37	 3077.48
     23.4990	 3668.00	 3541.71	-1412.93	 3079.97
     23.5250	 3602.00	 3544.26	-1481.47	 3082.45
     23.5510	 3589.00	 3546.93	-1497.14	 3084.92
     23.5770	 3558.00	 3549.46	-1530.67	 3087.38
     23.6030	 3495.00	 3551.99	-1596.20	 3089.83
     23.6290	 3653.00	 3554.50	-1440.71	 3092.27
     23.6550	 3521.00	 3557.01	-1575.22	 3094.70
     23.6810	 3456.00	 3559.50	-1642.72	 3097.13
     23.7070	 3536.00	 3561.99	-1565.20	 3099.54
     23.7330	 3661.00	 3564.47	-1442.68	 3101.95
     23.7590	 3672.00	 3566.94	-1434.15	 3104.34
     23.7850	 3601.00	 3569.40	-1507.61	 3106.72
     23.8110	 3665.00	 3571.85	-1446.06	 3109.10
     23.8370	 3626.00	 3574.29	-1487.50	 3111.46
     23.8630	 3584.00	 3576.72	-1531.94	 3113.81
     23.8890	 3627.00	 3579.15	-1491.36	 3116.16
     23.9150	 3564.00	 3581.56	-1556.77	 3118.49
     23.9410	 3622.00	 3583.96	-1501.17	 3120.81
     23.9670	 3677.00	 3586.35	-1448.56	 3123.12
     23.9930	 3642.00	 3588.73	-1485.94	 3125.42
     24.0190	 3631.00	 3591.10	-1499.31	 3127.71
     24.0450	 3681.00	 3593.46	-1451.67	 3129.99
     24.0710	 3606.00	 3595.81	-1529.02	 3132.26
     24.0970	 3637.00	 3598.15	-1500.36	 3134.51
     24.1230	 3647.00	 3600.48	-1492.69	 3136.76
     24.1490	 3664.00	 3602.80	-1478.01	 3138.99
     24.1750	 3633.00	 3605.10	-1511.31	 3141.21
     24.2010	 3700.00	 3607.40	-1446.61	 3143.42
     24.2270	 3658.00	 3609.68	-1490.89	 3145.62
     24.2530	 3582.00	 3611.95	-1569.17	 3147.80
     24.2790	 3637.00	 3614.22	-1516.43	 3149.98
     24.3050	 3604.00	 3616.47	-1551.68	 3152.14
     24.3310	 3627.00	 3618.71	-1530.92	 3154.29
     24.3570	 3610.00	 3620.93	-1550.15	 3156.43
     24.3830	 3547.00	 3623.27	-1615.48	 3158.55
     24.4090	 3591.00	 3625.47	-1573.69	 3160.66
     24.4350	 3597.00	 3627.67	-1569.88	 3162.76
     24.4610	 3620.00	 3629.85	-1549.06	 3164.85
     24.4870	 3619.00	 3632.08	-1552.29	 3166.92
     24.5130	 3605.00	 3634.23	-1568.44	 3168.98
     24.5390	 3647.00	 3636.38	-1528.59	 3171.03
     24.5650	 3656.00	 3638.51	-1521.72	 3173.07
     24.5910	 3667.00	 3640.63	-1512.84	 3175.09
     24.6170	 3614.00	 3642.74	-1567.95	 3177.10
     24.6430	 3581.00	 3644.84	-1603.05	 3179.09
     24.6690	 3615.00	 3646.92	-1571.13	 3181.08
     24.6950	 3598.00	 3648.99	-1590.20	 3183.05
     24.7210	 3564.00	 3651.05	-1626.26	 3185.00
     24.7470	 3589.00	 3653.09	-1603.31	 3186.94
     24.7730	 3586.00	 3655.12	-1608.34	 3188.87
     24.7990	 3580.00	 3657.15	-1616.37	 3190.78
     24.8250	 3632.00	 3659.16	-1566.37	 3192.68
     24.8510	 3589.00	 3661.15	-1611.36	 3194.57
     24.8770	 3617.00	 3663.13	-1585.34	 3196.44
     24.9030	 3659.00	 3665.10	-1545.31	 3198.30
     24.9290	 3613.00	 3667.05	-1593.26	 3200.14
     24.9550	 3626.00	 3668.99	-1582.20	 3201.97
     24.9810	 3644.00	 3670.92	-1566.13	 3203.78
     25.0070	 3603.00	 3672.83	-1609.04	 3205.58
     25.0330	 3580.00	 3674.73	-1633.94	 3207.37
     25.0590	 3625.00	 3676.61	-1590.82	 3209.14
     25.0850	 3695.00	 3678.48	-1522.70	 3210.89
     25.1110	 3716.00	 3680.34	-1503.55	 3212.63
     25.1370	 3708.00	 3682.18	-1513.40	 3214.36
     25.1630	 3696.00	 3684.01	-1527.23	 3216.07
     25.1890	 3713.00	 3685.83	-1512.04	 3217.77
     25.2150	 3734.00	 3687.63	-1492.84	 3219.45
     25.2410	 3614.00	 3689.42	-1614.63	 3221.11
     25.2670	 3614.00	 3691.19	-1616.41	 3222.76
     25.2930	 3686.00	 3692.95	-1546.17	 3224.40
     25.3190	 3698.00	 3694.70	-1535.91	 3226.01
     25.3450	 3685.00	 3696.43	-1550.64	 3227.62
     25.3710	 3626.00	 3698.15	-1611.36	 3229.20
     25.3970	 3713.00	 3699.85	-1526.06	 3230.78
     25.4230	 3612.00	 3701.54	-1628.75	 3232.33
     25.4490	 3635.00	 3703.21	-1607.42	 3233.87
     25.4750	 3642.00	 3704.87	-1602.08	 3235.40
     25.5010	 3619.00	 3706.51	-1626.73	 3236.91
     25.5270	 3604.00	 3708.15	-1643.36	 3238.40
     25.5530	 3638.00	 3709.76	-1610.97	 3239.87
     25.5790	 3559.00	 3711.36	-1691.57	 3241.33
     25.6050	 3653.00	 3712.98	-1599.19	 3242.78
     25.6310	 3638.00	 3714.55	-1615.76	 3244.20
     25.6570	 3619.00	 3716.12	-1636.34	 3245.61
     25.6830	 3597.00	 3717.67	-1659.88	 3247.01
     25.7090	 3549.00	 3719.19	-1709.41	 3248.39
     25.7350	 3596.00	 3720.71	-1663.92	 3249.75
     25.7610	 3697.00	 3722.20	-1564.41	 3251.09
     25.7870	 3736.00	 3723.68	-1526.90	 3252.42
     25.8130	 3574.00	 3725.15	-1690.36	 3253.73
     25.8390	 3543.00	 3726.67	-1722.88	 3255.03
     25.8650	 3666.00	 3728.10	-1601.32	 3256.30
     25.8910	 3652.00	 3729.52	-1616.74	 3257.56
     25.9170	 3527.00	 3731.06	-1743.27	 3258.81
     25.9430	 3583.00	 3732.45	-1688.66	 3260.03
     25.9690	 3614.00	 3733.83	-1659.04	 3261.24
     25.9950	 3572.00	 3735.19	-1702.40	 3262.43
     26.0210	 3629.00	 3736.70	-1646.91	 3263.61
     26.0470	 3525.00	 3738.03	-1752.24	 3264.77
     26.0730	 3675.00	 3739.41	-1603.62	 3265.91
     26.0990	 3587.00	 3741.03	-1693.24	 3267.03
     26.1250	 3574.00	 3742.35	-1707.56	 3268.13
     26.1510	 3673.00	 3743.62	-1609.83	 3269.22
     26.1770	 3585.00	 3744.92	-1699.13	 3270.29
     26.2030	 3588.00	 3746.18	-1697.39	 3271.34
     26.2290	 3621.00	 3747.41	-1665.62	 3272.38
     26.2550	 3578.00	 3748.62	-1709.83	 3273.40
     26.2810	 3664.00	 3749.81	-1625.02	 3274.39
     26.3070	 3657.00	 3751.22	-1633.43	 3275.38
     26.3330	 3774.00	 3752.83	-1518.04	 3276.34
     26.3590	 3600.00	 3753.98	-1693.19	 3277.28
     26.3850	 3507.00	 3755.11	-1787.33	 3278.21
     26.4110	 3589.00	 3756.23	-1706.45	 3279.12
     26.4370	 3611.00	 3757.34	-1685.55	 3280.01
     26.4630	 3546.00	 3758.43	-1751.64	 3280.89
     26.4890	 3595.00	 3759.50	-1703.72	 3281.74
     26.5150	 3627.00	 3760.56	-1672.78	 3282.58
     26.5410	 3718.00	 3761.61	-1582.82	 3283.40
     26.5670	 3624.00	 3762.64	-1677.85	 3284.20
     26.5930	 3629.00	 3763.65	-1673.87	 3284.98
     26.6190	 3783.00	 3764.66	-1520.87	 3285.75
     26.6450	 3679.00	 3765.64	-1625.85	 3286.49
     26.6710	 3655.00	 3766.61	-1650.82	 3287.22
     26.6970	 3655.00	 3767.57	-1651.78	 3287.93
     26.7230	 3660.00	 3768.51	-1647.72	 3288.62
     26.7490	 3637.00	 3769.44	-1671.65	 3289.29
     26.7750	 3636.00	 3770.35	-1673.56	 3289.94
     26.8010	 3554.00	 3771.25	-1756.46	 3290.58
     26.8270	 3592.00	 3772.14	-1719.35	 3291.19
     26.8530	 3582.00	 3773.01	-1730.22	 3291.79
     26.8790	 3607.00	 3773.86	-1706.07	 3292.37
     26.9050	 3630.00	 3774.70	-1683.92	 3292.93
     26.9310	 3618.00	 3775.53	-1696.74	 3293.47
     26.9570	 3623.00	 3776.35	-1692.56	 3294.00
     26.9830	 3593.00	 3777.15	-1723.36	 3294.50
     27.0090	 3569.00	 3777.93	-1748.15	 3294.98
     27.0350	 3593.00	 3778.71	-1724.92	 3295.45
     27.0610	 3604.00	 3779.47	-1714.68	 3295.90
     27.0870	 3622.00	 3780.22	-1697.43	 3296.33
     27.1130	 3590.00	 3780.95	-1730.16	 3296.74
     27.1390	 3580.00	 3781.67	-1740.89	 3297.13
     27.1650	 3658.00	 3782.38	-1663.59	 3297.50
     27.1910	 3636.00	 3783.08	-1686.29	 3297.85
     27.2170	 3636.00	 3783.76	-1686.98	 3298.18
     27.2430	 3681.00	 3784.44	-1642.65	 3298.50
     27.2690	 3653.00	 3785.10	-1671.31	 3298.79
     27.2950	 3643.00	 3785.74	-1681.96	 3299.07
     27.3210	 3640.00	 3786.38	-1685.59	 3299.33
     27.3470	 3624.00	 3787.01	-1702.22	 3299.57
     27.3730	 3654.00	 3787.62	-1672.83	 3299.78
     27.3990	 3684.00	 3788.22	-1643.44	 3299.98
     27.4250	 3703.00	 3788.82	-1625.03	 3300.16
     27.4510	 3716.00	 3789.40	-1612.61	 3300.33
     27.4770	 3665.00	 3789.97	-1664.19	 3300.47
     27.5030	 3658.00	 3790.54	-1671.75	 3300.59
     27.5290	 3681.00	 3791.09	-1649.30	 3300.69
     27.5550	 3672.00	 3791.64	-1658.85	 3300.78
     27.5810	 3578.00	 3792.17	-1753.39	 3300.84
     27.6070	 3492.00	 3792.70	-1839.91	 3300.89
     27.6330	 3595.00	 3793.22	-1737.44	 3300.92
     27.6590	 3683.00	 3793.74	-1649.95	 3300.93
     27.6850	 3794.00	 3794.24	-1539.45	 3300.91
     27.7110	 3775.00	 3794.74	-1558.95	 3300.88
     27.7370	 3678.00	 3795.24	-1656.45	 3300.83
     27.7630	 3650.00	 3795.72	-1684.94	 3300.76
     27.7890	 3737.00	 3796.21	-1598.42	 3300.67
     27.8150	 3714.00	 3796.69	-1621.90	 3300.57
     27.8410	 3664.00	 3797.16	-1672.37	 3300.44
     27.8670	 3649.00	 3797.63	-1687.84	 3300.29
     27.8930	 3725.00	 3798.10	-1612.31	 3300.13
     27.9190	 3772.00	 3798.57	-1565.78	 3299.94
     27.9450	 3756.00	 3799.03	-1582.25	 3299.73
     27.9710	 3797.00	 3799.50	-1541.71	 3299.51
     27.9970	 3753.00	 3799.97	-1586.18	 3299.27
     28.0230	 3749.00	 3800.43	-1590.65	 3299.00
     28.0490	 3714.00	 3800.90	-1626.12	 3298.72
     28.0750	 3747.00	 3801.38	-1593.59	 3298.42
     28.1010	 3717.00	 3801.85	-1624.07	 3298.10
     28.1270	 3668.00	 3802.34	-1673.55	 3297.76
     28.1530	 3721.00	 3802.83	-1621.04	 3297.40
     28.1790	 3862.00	 3803.32	-1480.53	 3297.02
     28.2050	 3792.00	 3803.83	-1551.04	 3296.62
     28.2310	 3670.00	 3804.34	-1673.56	 3296.21
     28.2570	 3803.00	 3804.87	-1541.08	 3295.77
     28.2830	 3788.00	 3805.41	-1556.62	 3295.31
     28.3090	 3758.00	 3805.97	-1587.18	 3294.84
     28.3350	 3699.00	 3806.54	-1646.75	 3294.34
     28.3610	 3667.00	 3807.13	-1679.34	 3293.83
     28.3870	 3697.00	 3807.74	-1649.95	 3293.30
     28.4130	 3768.00	 3808.37	-1579.58	 3292.74
     28.4390	 3748.00	 3809.03	-1600.24	 3292.17
     28.4650	 3807.00	 3809.71	-1541.92	 3291.58
     28.4910	 3649.00	 3810.42	-1700.63	 3290.97
     28.5170	 3764.00	 3811.16	-1586.38	 3290.34
     28.5430	 3839.00	 3811.94	-1512.15	 3289.70
     28.5690	 3820.00	 3812.75	-1531.97	 3289.03
     28.5950	 3789.00	 3813.61	-1563.82	 3288.34
     28.6210	 3918.00	 3814.51	-1435.72	 3287.64
     28.6470	 3938.00	 3815.45	-1416.66	 3286.91
     28.6730	 3810.00	 3816.44	-1545.66	 3286.17
     28.6990	 3908.00	 3817.49	-1448.70	 3285.40
     28.7250	 3885.00	 3818.60	-1472.81	 3284.62
     28.7510	 3864.00	 3819.77	-1494.98	 3283.82
     28.7770	 3803.00	 3821.00	-1557.21	 3283.00
     28.8030	 3939.00	 3822.31	-1422.52	 3282.16
     28.8290	 3861.00	 3823.69	-1501.90	 3281.30
     28.8550	 3824.00	 3825.16	-1540.37	 3280.43
     28.8810	 3868.00	 3826.71	-1497.92	 3279.53
     28.9070	 3655.00	 3828.36	-1712.57	 3278.62
     28.9330	 3771.00	 3830.10	-1598.31	 3277.68
     28.9590	 3791.00	 3831.95	-1580.16	 3276.73
     28.9850	 3768.00	 3833.91	-1605.13	 3275.76
     29.0110	 3750.00	 3835.99	-1625.21	 3274.77
     29.0370	 3764.00	 3838.20	-1613.41	 3273.76
     29.0630	 3797.00	 3840.54	-1582.75	 3272.73
     29.0890	 3765.00	 3843.02	-1617.23	 3271.69
     29.1150	 3894.00	 3845.65	-1490.86	 3270.62
     29.1410	 3871.00	 3848.43	-1516.64	 3269.54
     29.1670	 3810.00	 3851.37	-1580.58	 3268.44
     29.1930	 3935.00	 3854.48	-1458.69	 3267.32
     29.2190	 3888.00	 3857.77	-1508.98	 3266.18
     29.2450	 3828.00	 3861.23	-1572.44	 3265.02
     29.2710	 3924.00	 3864.88	-1480.09	 3263.84
     29.2970	 3875.00	 3868.72	-1532.93	 3262.65
     29.3230	 3859.00	 3872.74	-1552.95	 3261.44
     29.3490	 3822.00	 3876.95	-1594.17	 3260.21
     29.3750	 3796.00	 3881.35	-1624.57	 3258.96
     29.4010	 3858.00	 3885.94	-1567.15	 3257.69
     29.4270	 3862.00	 3890.69	-1567.90	 3256.40
     29.4530	 3850.00	 3895.60	-1584.81	 3255.10
     29.4790	 3962.00	 3900.65	-1477.87	 3253.77
     29.5050	 3938.00	 3905.82	-1507.04	 3252.43
     29.5310	 3867.00	 3911.08	-1583.30	 3251.07
     29.5570	 3842.00	 3916.40	-1613.61	 3249.70
     29.5830	 3878.00	 3921.73	-1582.94	 3248.30
     29.6090	 3873.00	 3927.02	-1593.23	 3246.89
     29.6350	 3777.00	 3932.22	-1694.43	 3245.46
     29.6610	 3815.00	 3937.26	-1661.47	 3244.01
     29.6870	 3963.00	 3942.08	-1518.30	 3242.54
     29.7130	 3933.00	 3946.61	-1552.82	 3241.06
     29.7390	 3868.00	 3950.77	-1621.98	 3239.55
     29.7650	 3882.00	 3954.47	-1611.68	 3238.03
     29.7910	 3855.00	 3957.65	-1641.86	 3236.50
     29.8170	 3800.00	 3960.23	-1699.44	 3234.94
     29.8430	 3891.00	 3962.14	-1610.35	 3233.37
     29.8690	 3935.00	 3963.33	-1567.54	 3231.78
     29.8950	 3883.00	 3963.76	-1619.97	 3230.17
     29.9210	 3883.00	 3963.38	-1619.59	 3228.54
     29.9470	 3889.00	 3962.18	-1612.40	 3226.90
     29.9730	 3850.00	 3960.17	-1649.39	 3225.24
     29.9990	 3811.00	 3957.36	-1685.57	 3223.56
     30.0250	 3887.00	 3953.78	-1606.00	 3221.87
     30.0510	 3847.00	 3949.48	-1641.70	 3220.15
     30.0770	 3720.00	 3944.52	-1763.73	 3218.42
     30.1030	 3796.00	 3938.95	-1682.16	 3216.68
     30.1290	 3844.00	 3932.86	-1628.07	 3214.91
     30.1550	 3813.00	 3926.32	-1652.53	 3213.13
     30.1810	 3823.00	 3919.40	-1635.61	 3211.33
     30.2070	 3829.00	 3912.19	-1622.41	 3209.52
     30.2330	 3814.00	 3904.76	-1629.97	 3207.69
     30.2590	 3776.00	 3897.18	-1660.39	 3205.84
     30.2850	 3821.00	 3889.50	-1607.72	 3203.98
     30.3110	 3852.00	 3881.79	-1569.00	 3202.09
     30.3370	 3825.00	 3874.10	-1588.31	 3200.20
     30.3630	 3854.00	 3866.46	-1551.67	 3198.28
     30.3890	 3806.00	 3858.92	-1592.13	 3196.35
     30.4150	 3814.00	 3851.49	-1576.71	 3194.40
     30.4410	 3842.00	 3844.22	-1541.43	 3192.44
     30.4670	 3836.00	 3837.10	-1540.32	 3190.46
     30.4930	 3837.00	 3830.17	-1532.38	 3188.46
     30.5190	 3851.00	 3823.42	-1511.63	 3186.45
     30.5450	 3777.00	 3816.87	-1579.08	 3184.42
     30.5710	 3787.00	 3810.51	-1562.72	 3182.37
     30.5970	 3857.00	 3804.34	-1486.56	 3180.31
     30.6230	 3780.00	 3798.38	-1557.59	 3178.23
     30.6490	 3760.00	 3792.61	-1571.82	 3176.14
     30.6750	 3737.00	 3787.02	-1589.23	 3174.03
     30.7010	 3817.00	 3781.62	-1503.83	 3171.91
     30.7270	 3827.00	 3776.40	-1488.61	 3169.77
     30.7530	 3714.00	 3771.35	-1596.56	 3167.61
     30.7790	 3833.00	 3766.46	-1472.68	 3165.44
     30.8050	 3755.00	 3761.74	-1545.95	 3163.25
     30.8310	 3755.00	 3757.16	-1541.38	 3161.05
     30.8570	 3668.00	 3752.74	-1623.95	 3158.83
     30.8830	 3746.00	 3748.45	-1541.66	 3156.60
     30.9090	 3807.00	 3744.29	-1476.50	 3154.35
     30.9350	 3715.00	 3740.25	-1564.47	 3152.08
     30.9610	 3684.00	 3736.34	-1591.55	 3149.80
     30.9870	 3628.00	 3732.54	-1643.75	 3147.51
     31.0130	 3638.00	 3728.85	-1630.06	 3145.20
     31.0390	 3617.00	 3725.26	-1647.47	 3142.87
     31.0650	 3727.00	 3721.77	-1533.98	 3140.54
     31.0910	 3625.00	 3718.37	-1632.58	 3138.18
     31.1170	 3654.00	 3715.06	-1600.27	 3135.81
     31.1430	 3654.00	 3711.83	-1597.04	 3133.43
     31.1690	 3660.00	 3708.68	-1587.90	 3131.03
     31.1950	 3621.00	 3705.61	-1623.83	 3128.62
     31.2210	 3637.00	 3702.62	-1604.83	 3126.19
     31.2470	 3669.00	 3699.69	-1569.90	 3123.75
     31.2730	 3680.00	 3696.82	-1556.04	 3121.30
     31.2990	 3736.00	 3694.03	-1497.24	 3118.83
     31.3250	 3611.00	 3691.29	-1619.50	 3116.34
     31.3510	 3595.00	 3688.61	-1632.82	 3113.84
     31.3770	 3653.00	 3685.99	-1572.20	 3111.33
     31.4030	 3677.00	 3683.42	-1545.63	 3108.81
     31.4290	 3664.00	 3680.90	-1556.11	 3106.27
     31.4550	 3636.00	 3678.43	-1581.65	 3103.71
     31.4810	 3679.00	 3676.02	-1536.23	 3101.15
     31.5070	 3649.00	 3673.64	-1563.86	 3098.57
     31.5330	 3652.00	 3671.32	-1558.53	 3095.97
     31.5590	 3627.00	 3669.04	-1581.25	 3093.36
     31.5850	 3596.00	 3666.80	-1610.02	 3090.74
     31.6110	 3584.00	 3664.61	-1619.82	 3088.11
     31.6370	 3725.00	 3662.46	-1476.67	 3085.46
     31.6630	 3546.00	 3660.35	-1653.56	 3082.80
     31.6890	 3642.00	 3658.28	-1555.49	 3080.13
     31.7150	 3674.00	 3656.25	-1521.46	 3077.44
     31.7410	 3619.00	 3654.26	-1574.47	 3074.74
     31.7670	 3653.00	 3652.31	-1538.52	 3072.03
     31.7930	 3627.00	 3650.40	-1562.61	 3069.30
     31.8190	 3655.00	 3648.53	-1532.74	 3066.56
     31.8450	 3582.00	 3646.69	-1603.90	 3063.81
     31.8710	 3593.00	 3644.90	-1591.11	 3061.05
     31.8970	 3713.00	 3643.14	-1469.35	 3058.27
     31.9230	 3621.00	 3641.43	-1559.64	 3055.48
     31.9490	 3583.00	 3639.75	-1595.96	 3052.68
     31.9750	 3618.00	 3638.11	-1559.33	 3049.87
     32.0010	 3653.00	 3636.52	-1522.73	 3047.05
     32.0270	 3613.00	 3634.96	-1561.17	 3044.21
     32.0530	 3620.00	 3633.45	-1552.66	 3041.36
     32.0790	 3590.00	 3631.98	-1581.19	 3038.50
     32.1050	 3579.00	 3630.55	-1590.76	 3035.63
     32.1310	 3548.00	 3629.16	-1620.37	 3032.74
     32.1570	 3606.00	 3627.82	-1561.03	 3029.85
     32.1830	 3646.00	 3626.52	-1519.74	 3026.94
     32.2090	 3693.00	 3625.27	-1471.49	 3024.02
     32.2350	 3628.00	 3624.07	-1535.28	 3021.09
     32.2610	 3480.00	 3622.92	-1682.13	 3018.15
     32.2870	 3536.00	 3621.82	-1625.03	 3015.20
     32.3130	 3537.00	 3620.76	-1622.98	 3012.23
     32.3390	 3564.00	 3619.77	-1594.98	 3009.26
     32.3650	 3579.00	 3618.82	-1579.03	 3006.27
     32.3910	 3545.00	 3617.93	-1612.15	 3003.27
     32.4170	 3592.00	 3617.10	-1564.32	 3000.27
     32.4430	 3648.00	 3616.33	-1507.54	 2997.25
     32.4690	 3579.00	 3615.62	-1575.84	 2994.22
     32.4950	 3557.00	 3614.98	-1597.19	 2991.18
     32.5210	 3551.00	 3614.40	-1602.61	 2988.13
     32.5470	 3540.00	 3613.88	-1613.10	 2985.07
     32.5730	 3621.00	 3613.44	-1531.65	 2982.00
     32.5990	 3620.00	 3613.07	-1532.28	 2978.92
     32.6250	 3607.00	 3612.78	-1544.99	 2975.83
     32.6510	 3604.00	 3612.56	-1547.77	 2972.73
     32.6770	 3619.00	 3612.43	-1532.64	 2969.62
     32.7030	 3707.00	 3612.37	-1444.58	 2966.50
     32.7290	 3741.00	 3612.41	-1410.62	 2963.37
     32.7550	 3735.00	 3612.53	-1416.75	 2960.23
     32.7810	 3681.00	 3612.75	-1470.97	 2957.08
     32.8070	 3686.00	 3613.07	-1466.28	 2953.92
     32.8330	 3730.00	 3613.49	-1422.70	 2950.75
     32.8590	 3662.00	 3614.01	-1491.22	 2947.57
     32.8850	 3622.00	 3614.64	-1531.86	 2944.39
     32.9110	 3693.00	 3615.39	-1461.60	 2941.19
     32.9370	 3657.00	 3616.25	-1498.47	 2937.99
     32.9630	 3684.00	 3617.24	-1472.46	 2934.77
     32.9890	 3657.00	 3618.36	-1500.57	 2931.55
     33.0150	 3692.00	 3619.61	-1466.82	 2928.32
     33.0410	 3732.00	 3621.00	-1428.21	 2925.08
     33.0670	 3675.00	 3622.54	-1486.75	 2921.83
     33.0930	 3780.00	 3624.22	-1383.44	 2918.57
     33.1190	 3701.00	 3626.07	-1464.28	 2915.31
     33.1450	 3797.00	 3628.08	-1370.29	 2912.04
     33.1710	 3784.00	 3630.26	-1385.47	 2908.75
     33.1970	 3771.00	 3632.63	-1400.84	 2905.46
     33.2230	 3784.00	 3635.18	-1390.39	 2902.17
     33.2490	 3879.00	 3637.93	-1298.14	 2898.86
     33.2750	 3828.00	 3640.88	-1352.09	 2895.55
     33.3010	 3797.00	 3644.05	-1386.26	 2892.23
     33.3270	 3867.00	 3647.44	-1319.66	 2888.90
     33.3530	 3845.00	 3651.07	-1345.29	 2885.56
     33.3790	 3862.00	 3654.95	-1332.16	 2882.22
     33.4050	 3878.00	 3659.08	-1320.30	 2878.86
     33.4310	 3891.00	 3663.49	-1311.70	 2875.51
     33.4570	 4045.00	 3668.18	-1162.39	 2872.14
     33.4830	 3939.00	 3673.17	-1273.38	 2868.77
     33.5090	 3900.00	 3678.47	-1317.68	 2865.39
     33.5350	 3970.00	 3684.09	-1253.31	 2862.00
     33.5610	 4037.00	 3690.07	-1192.28	 2858.61
     33.5870	 4058.00	 3696.40	-1177.61	 2855.21
     33.6130	 4017.00	 3703.11	-1225.32	 2851.80
     33.6390	 4022.00	 3710.22	-1227.43	 2848.39
     33.6650	 4167.00	 3717.75	-1089.97	 2844.97
     33.6910	 4078.00	 3725.72	-1186.94	 2841.54
     33.7170	 4117.00	 3734.16	-1156.37	 2838.11
     33.7430	 4090.00	 3743.09	-1192.30	 2834.67
     33.7690	 4103.00	 3752.52	-1188.74	 2831.22
     33.7950	 4116.00	 3762.51	-1185.72	 2827.77
     33.8210	 4241.00	 3773.05	-1071.27	 2824.31
     33.8470	 4259.00	 3784.21	-1064.42	 2820.85
     33.8730	 4191.00	 3796.00	-1144.21	 2817.38
     33.8990	 4264.00	 3808.45	-1083.67	 2813.91
     33.9250	 4260.00	 3821.62	-1100.83	 2810.43
     33.9510	 4315.00	 3835.52	-1059.74	 2806.94
     33.9770	 4368.00	 3850.22	-1021.43	 2803.45
     34.0030	 4418.00	 3865.74	 -986.95	 2799.96
     34.0290	 4371.00	 3882.14	-1050.35	 2796.46
     34.0550	 4408.00	 3899.46	-1030.67	 2792.95
     34.0810	 4405.00	 3917.76	-1051.97	 2789.44
     34.1070	 4372.00	 3937.09	-1104.30	 2785.93
     34.1330	 4443.00	 3957.50	-1053.72	 2782.41
     34.1590	 4640.00	 3979.07	 -878.28	 2778.88
     34.1850	 4573.00	 4001.85	 -968.06	 2775.35
     34.2110	 4549.00	 4025.90	-1016.11	 2771.82
     34.2370	 4615.00	 4051.30	 -975.51	 2768.28
     34.2630	 4592.00	 4078.13	-1025.34	 2764.74
     34.2890	 4657.00	 4106.45	 -988.67	 2761.19
     34.3150	 4710.00	 4136.36	 -965.57	 2757.64
     34.3410	 4698.00	 4167.92	-1009.13	 2754.08
     34.3670	 4725.00	 4201.23	-1015.44	 2750.52
     34.3930	 4772.00	 4236.37	-1003.58	 2746.96
     34.4190	 4813.00	 4273.43	 -999.64	 2743.40
     34.4450	 4945.00	 4312.50	 -906.71	 2739.82
     34.4710	 4923.00	 4353.67	 -969.88	 2736.25
     34.4970	 4916.00	 4397.02	-1020.23	 2732.67
     34.5230	 4913.00	 4442.64	-1068.85	 2729.09
     34.5490	 4891.00	 4490.60	-1138.82	 2725.51
     34.5750	 4885.00	 4540.99	-1195.20	 2721.92
     34.6010	 5068.00	 4593.86	-1065.07	 2718.33
     34.6270	 5020.00	 4649.23	-1168.45	 2714.74
     34.6530	 5092.00	 4707.19	-1154.40	 2711.14
     34.6790	 5008.00	 4767.72	-1298.93	 2707.54
     34.7050	 5061.00	 4830.80	-1309.01	 2703.94
     34.7310	 5290.00	 4896.38	-1145.59	 2700.34
     34.7570	 5278.00	 4964.39	-1225.60	 2696.73
     34.7830	 5249.00	 5034.70	-1324.91	 2693.12
     34.8090	 5182.00	 5107.12	-1464.33	 2689.51
     34.8350	 5219.00	 5181.41	-1501.62	 2685.90
     34.8610	 5298.00	 5257.26	-1498.47	 2682.28
     34.8870	 5338.00	 5334.28	-1535.50	 2678.66
     34.9130	 5258.00	 5412.03	-1693.24	 2675.04
     34.9390	 5237.00	 5489.94	-1792.16	 2671.42
     34.9650	 5364.00	 5567.42	-1742.63	 2667.80
     34.9910	 5475.00	 5643.72	-1707.93	 2664.17
     35.0170	 5505.00	 5718.07	-1752.28	 2660.54
     35.0430	 5457.00	 5789.58	-1871.79	 2656.91
     35.0690	 5367.00	 5857.38	-2029.59	 2653.28
     35.0950	 5271.00	 5920.50	-2188.71	 2649.65
     35.1210	 5332.00	 5977.97	-2185.19	 2646.02
     35.1470	 5440.00	 6028.86	-2128.07	 2642.39
     35.1730	 5420.00	 6072.28	-2191.49	 2638.75
     35.1990	 5438.00	 6107.40	-2208.62	 2635.11
     35.2250	 5453.00	 6133.55	-2219.76	 2631.48
     35.2510	 5435.00	 6150.16	-2254.37	 2627.84
     35.2770	 5438.00	 6156.85	-2258.06	 2624.20
     35.3030	 5353.00	 6153.43	-2339.65	 2620.56
     35.3290	 5326.00	 6139.91	-2353.12	 2616.92
     35.3550	 5393.00	 6116.48	-2262.69	 2613.28
     35.3810	 5377.00	 6083.51	-2245.73	 2609.64
     35.4070	 5376.00	 6041.57	-2204.78	 2606.00
     35.4330	 5350.00	 5991.34	-2180.56	 2602.36
     35.4590	 5326.00	 5933.66	-2146.87	 2598.72
     35.4850	 5340.00	 5869.37	-2068.58	 2595.08
     35.5110	 5276.00	 5799.43	-2062.64	 2591.44
     35.5370	 5243.00	 5724.82	-2021.03	 2587.80
     35.5630	 5270.00	 5646.44	-1915.65	 2584.16
     35.5890	 5278.00	 5565.23	-1826.44	 2580.52
     35.6150	 5220.00	 5482.04	-1801.25	 2576.88
     35.6410	 5216.00	 5397.66	-1720.87	 2573.24
     35.6670	 5132.00	 5312.80	-1720.02	 2569.60
     35.6930	 5033.00	 5228.10	-1734.31	 2565.96
     35.7190	 5050.00	 5144.09	-1633.30	 2562.32
     35.7450	 4947.00	 5061.25	-1653.46	 2558.69
     35.7710	 4883.00	 4979.95	-1636.16	 2555.05
     35.7970	 4825.00	 4900.49	-1614.71	 2551.42
     35.8230	 4769.00	 4823.14	-1593.35	 2547.79
     35.8490	 4762.00	 4748.09	-1525.30	 2544.15
     35.8750	 4752.00	 4675.44	-1462.65	 2540.52
     35.9010	 4751.00	 4605.29	-1393.50	 2536.89
     35.9270	 4718.00	 4537.69	-1358.90	 2533.27
     35.9530	 4677.00	 4472.68	-1334.89	 2529.64
     35.9790	 4564.00	 4410.22	-1385.44	 2526.02
     36.0050	 4581.00	 4350.30	-1308.51	 2522.39
     36.0310	 4595.00	 4292.87	-1237.08	 2518.77
     36.0570	 4498.00	 4237.86	-1279.07	 2515.15
     36.0830	 4443.00	 4185.21	-1281.42	 2511.54
     36.1090	 4544.00	 4134.84	-1130.05	 2507.92
     36.1350	 4551.00	 4086.66	-1074.87	 2504.31
     36.1610	 4400.00	 4040.60	-1179.81	 2500.70
     36.1870	 4360.00	 3996.56	-1175.77	 2497.09
     36.2130	 4495.00	 3954.45	 -998.66	 2493.48
     36.2390	 4357.00	 3914.18	-1096.40	 2489.88
     36.2650	 4254.00	 3875.69	-1160.90	 2486.28
     36.2910	 4249.00	 3838.86	-1129.07	 2482.68
     36.3170	 4209.00	 3803.63	-1133.84	 2479.09
     36.3430	 4237.00	 3769.91	-1072.12	 2475.49
     36.3690	 4271.00	 3737.63	-1005.84	 2471.90
     36.3950	 4321.00	 3706.71	 -924.92	 2468.32
     36.4210	 4243.00	 3677.09	 -973.30	 2464.73
     36.4470	 4120.00	 3648.69	-1067.90	 2461.15
     36.4730	 4215.00	 3621.45	 -945.67	 2457.58
     36.4990	 4232.00	 3595.32	 -902.53	 2454.00
     36.5250	 4244.00	 3570.23	 -865.44	 2450.43
     36.5510	 4086.00	 3546.13	 -999.34	 2446.86
     36.5770	 4177.00	 3522.97	 -885.18	 2443.30
     36.6030	 4114.00	 3500.69	 -925.90	 2439.74
     36.6290	 4118.00	 3479.25	 -900.46	 2436.19
     36.6550	 4136.00	 3458.60	 -861.82	 2432.63
     36.6810	 4027.00	 3438.71	 -950.92	 2429.08
     36.7070	 4051.00	 3419.52	 -907.73	 2425.54
     36.7330	 3964.00	 3401.00	 -976.21	 2422.00
     36.7590	 4170.00	 3383.12	 -752.34	 2418.46
     36.7850	 4131.00	 3365.84	 -774.06	 2414.93
     36.8110	 4108.00	 3349.13	 -780.35	 2411.40
     36.8370	 4006.00	 3332.96	 -866.17	 2407.88
     36.8630	 3855.00	 3317.30	-1001.51	 2404.36
     36.8890	 3925.00	 3302.12	 -916.33	 2400.84
     36.9150	 3967.00	 3287.40	 -859.61	 2397.33
     36.9410	 3811.00	 3273.11	-1001.32	 2393.83
     36.9670	 3863.00	 3259.24	 -935.45	 2390.33
     36.9930	 3948.00	 3245.76	 -836.97	 2386.83
     37.0190	 3843.00	 3232.65	 -928.87	 2383.34
     37.0450	 3770.00	 3219.91	 -989.12	 2379.85
     37.0710	 3729.00	 3207.50	-1017.72	 2376.37
     37.0970	 3713.00	 3195.42	-1021.64	 2372.89
     37.1230	 3653.00	 3183.66	-1069.87	 2369.42
     37.1490	 3704.00	 3172.20	-1007.41	 2365.95
     37.1750	 3674.00	 3161.02	-1026.24	 2362.49
     37.2010	 3571.00	 3150.13	-1118.34	 2359.04
     37.2270	 3531.00	 3139.50	-1147.71	 2355.59
     37.2530	 3453.00	 3129.12	-1215.34	 2352.14
     37.2790	 3450.00	 3119.00	-1208.21	 2348.70
     37.3050	 3465.00	 3109.11	-1183.32	 2345.27
     37.3310	 3473.00	 3099.45	-1165.67	 2341.84
     37.3570	 3433.00	 3090.02	-1196.23	 2338.42
     37.3830	 3299.00	 3080.80	-1321.01	 2335.00
     37.4090	 3316.00	 3071.78	-1294.99	 2331.59
     37.4350	 3288.00	 3062.96	-1314.18	 2328.19
     37.4610	 3303.00	 3054.34	-1290.55	 2324.79
     37.4870	 3273.00	 3045.90	-1312.11	 2321.40
     37.5130	 3211.00	 3037.64	-1365.85	 2318.01
     37.5390	 3174.00	 3029.54	-1394.75	 2314.63
     37.5650	 3155.00	 3021.62	-1405.83	 2311.26
     37.5910	 3102.00	 3013.85	-1451.06	 2307.89
     37.6170	 3059.00	 3006.24	-1486.45	 2304.53
     37.6430	 3114.00	 2998.78	-1423.99	 2301.18
     37.6690	 3088.00	 2991.46	-1442.67	 2297.83
     37.6950	 3025.00	 2984.28	-1498.49	 2294.49
     37.7210	 3011.00	 2977.23	-1505.44	 2291.15
     37.7470	 3031.00	 2970.31	-1478.53	 2287.83
     37.7730	 3050.00	 2963.52	-1452.74	 2284.51
     37.7990	 2981.00	 2956.85	-1515.07	 2281.19
     37.8250	 2977.00	 2950.30	-1512.51	 2277.88
     37.8510	 3033.00	 2943.86	-1450.08	 2274.59
     37.8770	 3002.00	 2937.54	-1474.75	 2271.29
     37.9030	 2969.00	 2931.32	-1501.53	 2268.01
     37.9290	 2897.00	 2925.20	-1567.41	 2264.73
     37.9550	 2859.00	 2919.18	-1599.39	 2261.46
     37.9810	 2921.00	 2913.26	-1531.48	 2258.19
     38.0070	 2882.00	 2907.44	-1564.65	 2254.94
     38.0330	 2847.00	 2901.71	-1593.92	 2251.69
     38.0590	 2924.00	 2896.06	-1511.28	 2248.45
     38.0850	 2925.00	 2890.51	-1504.72	 2245.21
     38.1110	 2838.00	 2885.04	-1586.25	 2241.99
     38.1370	 2863.00	 2879.65	-1555.86	 2238.77
     38.1630	 2795.00	 2874.34	-1618.55	 2235.56
     38.1890	 2856.00	 2869.11	-1552.32	 2232.36
     38.2150	 2863.00	 2863.96	-1540.17	 2229.16
     38.2410	 2890.00	 2858.88	-1508.09	 2225.98
     38.2670	 2936.00	 2853.87	-1457.08	 2222.80
     38.2930	 2890.00	 2848.93	-1498.15	 2219.63
     38.3190	 2808.00	 2844.07	-1575.28	 2216.46
     38.3450	 2847.00	 2839.27	-1531.48	 2213.31
     38.3710	 2879.00	 2834.54	-1494.75	 2210.16
     38.3970	 2791.00	 2829.87	-1578.08	 2207.02
     38.4230	 2751.00	 2825.27	-1613.48	 2203.89
     38.4490	 2753.00	 2820.73	-1606.94	 2200.77
     38.4750	 2772.00	 2816.25	-1583.46	 2197.66
     38.5010	 2773.00	 2811.83	-1578.04	 2194.56
     38.5270	 2806.00	 2807.47	-1540.68	 2191.46
     38.5530	 2780.00	 2803.17	-1562.38	 2188.37
     38.5790	 2788.00	 2798.93	-1550.14	 2185.29
     38.6050	 2751.00	 2794.74	-1582.95	 2182.22
     38.6310	 2740.00	 2790.60	-1589.82	 2179.16
     38.6570	 2813.00	 2786.53	-1512.74	 2176.11
     38.6830	 2688.00	 2782.50	-1633.71	 2173.07
     38.7090	 2676.00	 2778.53	-1641.74	 2170.03
     38.7350	 2710.00	 2774.61	-1603.82	 2167.00
     38.7610	 2779.00	 2770.74	-1530.96	 2163.99
     38.7870	 2640.00	 2766.93	-1666.14	 2160.98
     38.8130	 2693.00	 2763.16	-1609.37	 2157.98
     38.8390	 2667.00	 2759.45	-1631.66	 2154.99
     38.8650	 2663.00	 2755.78	-1631.99	 2152.01
     38.8910	 2722.00	 2752.16	-1569.37	 2149.04
     38.9170	 2720.00	 2748.59	-1567.80	 2146.08
     38.9430	 2695.00	 2745.07	-1589.28	 2143.13
     38.9690	 2605.00	 2741.60	-1675.81	 2140.18
     38.9950	 2710.00	 2738.17	-1567.38	 2137.25
     39.0210	 2687.00	 2734.79	-1587.01	 2134.32
     39.0470	 2682.00	 2731.46	-1588.67	 2131.41
     39.0730	 2569.00	 2728.18	-1698.39	 2128.51
     39.0990	 2651.00	 2724.94	-1613.15	 2125.61
     39.1250	 2628.00	 2721.75	-1632.96	 2122.72
     39.1510	 2633.00	 2718.60	-1624.81	 2119.85
     39.1770	 2593.00	 2715.50	-1661.72	 2116.98
     39.2030	 2569.00	 2712.45	-1682.66	 2114.12
     39.2290	 2641.00	 2709.44	-1607.66	 2111.28
     39.2550	 2698.00	 2706.48	-1547.69	 2108.44
     39.2810	 2693.00	 2703.57	-1549.78	 2105.61
     39.3070	 2719.00	 2700.70	-1520.91	 2102.80
     39.3330	 2597.00	 2697.88	-1640.09	 2099.99
     39.3590	 2601.00	 2695.10	-1633.31	 2097.19
     39.3850	 2572.00	 2692.37	-1659.58	 2094.40
     39.4110	 2515.00	 2689.69	-1713.90	 2091.63
     39.4370	 2596.00	 2687.05	-1630.26	 2088.86
     39.4630	 2590.00	 2684.46	-1633.67	 2086.10
     39.4890	 2624.00	 2681.92	-1597.13	 2083.35
     39.5150	 2585.00	 2679.42	-1633.64	 2080.62
     39.5410	 2493.00	 2676.98	-1723.19	 2077.89
     39.5670	 2526.00	 2674.58	-1687.79	 2075.18
     39.5930	 2568.00	 2672.23	-1643.44	 2072.47
     39.6190	 2527.00	 2669.93	-1682.14	 2069.78
     39.6450	 2603.00	 2667.68	-1603.89	 2067.09
     39.6710	 2613.00	 2665.48	-1591.69	 2064.42
     39.6970	 2516.00	 2663.33	-1686.54	 2061.75
     39.7230	 2562.00	 2661.23	-1638.44	 2059.10
     39.7490	 2530.00	 2659.18	-1668.39	 2056.46
     39.7750	 2642.00	 2657.19	-1554.40	 2053.82
     39.8010	 2592.00	 2655.24	-1602.46	 2051.20
     39.8270	 2514.00	 2653.36	-1678.57	 2048.59
     39.8530	 2546.00	 2651.53	-1644.74	 2045.99
     39.8790	 2522.00	 2649.75	-1666.96	 2043.40
     39.9050	 2475.00	 2648.03	-1712.24	 2040.82
     39.9310	 2511.00	 2646.37	-1674.58	 2038.25
     39.9570	 2531.00	 2644.76	-1652.97	 2035.70
     39.9830	 2549.00	 2643.22	-1633.43	 2033.15
     40.0090	 2515.00	 2641.73	-1665.94	 2030.61
     40.0350	 2531.00	 2640.31	-1648.52	 2028.09
     40.0610	 2576.00	 2638.95	-1602.16	 2025.58
     40.0870	 2541.00	 2637.65	-1635.86	 2023.07
     40.1130	 2540.00	 2636.42	-1635.63	 2020.58
     40.1390	 2482.00	 2635.26	-1692.47	 2018.10
     40.1650	 2456.00	 2634.16	-1717.37	 2015.63
     40.1910	 2469.00	 2633.14	-1703.35	 2013.17
     40.2170	 2516.00	 2632.18	-1655.39	 2010.72
     40.2430	 2536.00	 2631.30	-1634.51	 2008.29
     40.2690	 2526.00	 2630.50	-1643.71	 2005.86
     40.2950	 2514.00	 2629.77	-1654.98	 2003.45
     40.3210	 2504.00	 2629.12	-1664.33	 2001.04
     40.3470	 2531.00	 2628.55	-1636.76	 1998.65
     40.3730	 2528.00	 2628.06	-1639.27	 1996.27
     40.3990	 2497.00	 2627.66	-1669.87	 1993.90
     40.4250	 2466.00	 2627.35	-1700.56	 1991.54
     40.4510	 2485.00	 2627.13	-1681.34	 1989.19
     40.4770	 2512.00	 2627.00	-1654.21	 1986.86
     40.5030	 2491.00	 2626.96	-1675.18	 1984.53
     40.5290	 2508.00	 2627.03	-1658.24	 1982.22
     40.5550	 2514.00	 2627.19	-1652.41	 1979.92
     40.5810	 2485.00	 2627.47	-1681.68	 1977.63
     40.6070	 2463.00	 2627.84	-1704.06	 1975.35
     40.6330	 2442.00	 2628.34	-1725.55	 1973.08
     40.6590	 2422.00	 2628.94	-1746.16	 1970.82
     40.6850	 2432.00	 2629.67	-1736.88	 1968.58
     40.7110	 2430.00	 2630.52	-1739.73	 1966.34
     40.7370	 2458.00	 2631.50	-1712.71	 1964.12
     40.7630	 2480.00	 2632.61	-1691.82	 1961.91
     40.7890	 2537.00	 2633.85	-1636.07	 1959.71
     40.8150	 2483.00	 2635.24	-1691.46	 1957.52
     40.8410	 2457.00	 2636.78	-1718.99	 1955.35
     40.8670	 2455.00	 2638.47	-1722.68	 1953.18
     40.8930	 2514.00	 2640.32	-1665.53	 1951.03
     40.9190	 2438.00	 2642.34	-1743.55	 1948.89
     40.9450	 2475.00	 2644.52	-1708.73	 1946.76
     40.9710	 2540.00	 2646.89	-1646.10	 1944.64
     40.9970	 2497.00	 2649.44	-1691.65	 1942.53
     41.0230	 2479.00	 2652.18	-1712.40	 1940.44
     41.0490	 2451.00	 2655.13	-1743.34	 1938.35
     41.0750	 2518.00	 2658.29	-1679.50	 1936.28
     41.1010	 2539.00	 2661.67	-1661.88	 1934.22
     41.1270	 2546.00	 2665.27	-1658.48	 1932.17
     41.1530	 2565.00	 2669.12	-1643.33	 1930.13
     41.1790	 2468.00	 2673.21	-1744.43	 1928.11
     41.2050	 2460.00	 2677.57	-1756.78	 1926.10
     41.2310	 2482.00	 2682.20	-1739.41	 1924.09
     41.2570	 2555.00	 2687.12	-1671.33	 1922.10
     41.2830	 2455.00	 2692.33	-1776.55	 1920.12
     41.3090	 2480.00	 2697.86	-1757.08	 1918.16
     41.3350	 2476.00	 2703.72	-1766.93	 1916.20
     41.3610	 2487.00	 2709.92	-1762.14	 1914.26
     41.3870	 2452.00	 2716.49	-1803.70	 1912.33
     41.4130	 2519.00	 2723.43	-1743.65	 1910.41
     41.4390	 2548.00	 2730.78	-1721.99	 1908.50
     41.4650	 2530.00	 2738.54	-1747.75	 1906.60
     41.4910	 2488.00	 2746.74	-1797.95	 1904.72
     41.5170	 2457.00	 2755.40	-1837.62	 1902.84
     41.5430	 2513.00	 2764.55	-1790.77	 1900.98
     41.5690	 2400.00	 2774.21	-1913.43	 1899.13
     41.5950	 2451.00	 2784.41	-1872.62	 1897.29
     41.6210	 2465.00	 2795.17	-1869.39	 1895.47
     41.6470	 2494.00	 2806.53	-1851.74	 1893.65
     41.6730	 2460.00	 2818.52	-1897.73	 1891.85
     41.6990	 2452.00	 2831.16	-1918.37	 1890.06
     41.7250	 2570.00	 2844.50	-1813.72	 1888.28
     41.7510	 2447.00	 2858.57	-1950.78	 1886.51
     41.7770	 2574.00	 2873.42	-1838.63	 1884.76
     41.8030	 2485.00	 2889.07	-1943.28	 1883.01
     41.8290	 2531.00	 2905.58	-1913.79	 1881.28
     41.8550	 2467.00	 2922.99	-1995.20	 1879.56
     41.8810	 2435.00	 2941.34	-2045.55	 1877.85
     41.9070	 2601.00	 2960.69	-1898.90	 1876.16
     41.9330	 2419.00	 2981.08	-2101.30	 1874.47
     41.9590	 2572.00	 3002.57	-1969.78	 1872.80
     41.9850	 2559.00	 3025.21	-2005.42	 1871.14
     42.0110	 2527.00	 3049.06	-2061.27	 1869.48
     42.0370	 2505.00	 3074.16	-2108.37	 1867.85
     42.0630	 2538.00	 3100.57	-2101.79	 1866.22
     42.0890	 2603.00	 3128.36	-2064.58	 1864.60
     42.1150	 2676.00	 3157.58	-2020.80	 1863.00
     42.1410	 2744.00	 3188.28	-1983.49	 1861.41
     42.1670	 2748.00	 3220.50	-2011.71	 1859.83
     42.1930	 2865.00	 3254.29	-1928.51	 1858.26
     42.2190	 2908.00	 3289.71	-1920.92	 1856.70
     42.2450	 3024.00	 3326.76	-1841.97	 1855.16
     42.2710	 3142.00	 3365.48	-1762.69	 1853.63
     42.2970	 3104.00	 3405.87	-1841.08	 1852.10
     42.3230	 3162.00	 3447.92	-1825.13	 1850.59
     42.3490	 3302.00	 3491.61	-1728.82	 1849.10
     42.3750	 3443.00	 3536.88	-1633.10	 1847.61
     42.4010	 3526.00	 3583.67	-1596.88	 1846.13
     42.4270	 3573.00	 3631.85	-1598.06	 1844.67
     42.4530	 3679.00	 3681.28	-1541.49	 1843.22
     42.4790	 3766.00	 3731.79	-1505.01	 1841.78
     42.5050	 3882.00	 3783.16	-1440.37	 1840.35
     42.5310	 4022.00	 3835.09	-1352.30	 1838.93
     42.5570	 4072.00	 3887.26	-1354.47	 1837.53
     42.5830	 4310.00	 3939.31	-1168.52	 1836.13
     42.6090	 4442.00	 3990.81	-1088.02	 1834.75
     42.6350	 4507.00	 4041.27	-1073.48	 1833.38
     42.6610	 4663.00	 4090.18	 -966.39	 1832.02
     42.6870	 4771.00	 4136.97	 -905.19	 1830.67
     42.7130	 4800.00	 4181.07	 -920.29	 1829.33
     42.7390	 4879.00	 4221.88	 -882.09	 1828.00
     42.7650	 4979.00	 4258.79	 -819.00	 1826.69
     42.7910	 5100.00	 4291.24	 -730.45	 1825.39
     42.8170	 5142.00	 4318.69	 -715.90	 1824.10
     42.8430	 5175.00	 4340.66	 -704.87	 1822.82
     42.8690	 5191.00	 4356.75	 -704.96	 1821.55
     42.8950	 5246.00	 4366.67	 -659.88	 1820.29
     42.9210	 5265.00	 4370.20	 -644.41	 1819.04
     42.9470	 5278.00	 4367.27	 -628.48	 1817.81
     42.9730	 5296.00	 4357.91	 -601.12	 1816.58
     42.9990	 5250.00	 4342.26	 -631.48	 1815.37
     43.0250	 5201.00	 4320.59	 -658.80	 1814.17
     43.0510	 5069.00	 4293.25	 -763.46	 1812.98
     43.0770	 5002.00	 4260.69	 -797.90	 1811.80
     43.1030	 5052.00	 4223.40	 -710.61	 1810.63
     43.1290	 4971.00	 4181.95	 -750.16	 1809.48
     43.1550	 4785.00	 4136.92	 -891.13	 1808.33
     43.1810	 4697.00	 4088.90	 -931.11	 1807.20
     43.2070	 4623.00	 4038.47	 -954.68	 1806.07
     43.2330	 4509.00	 3986.21	-1016.43	 1804.96
     43.2590	 4389.00	 3932.66	-1082.87	 1803.86
     43.2850	 4168.00	 3878.32	-1249.53	 1802.77
     43.3110	 4124.00	 3823.60	-1238.82	 1801.69
     43.3370	 4008.00	 3768.94	-1300.15	 1800.62
     43.3630	 3840.00	 3714.69	-1413.90	 1799.57
     43.3890	 3819.00	 3661.11	-1381.32	 1798.52
     43.4150	 3646.00	 3608.48	-1501.70	 1797.48
     43.4410	 3454.00	 3557.01	-1642.22	 1796.46
     43.4670	 3389.00	 3506.85	-1657.06	 1795.44
     43.4930	 3335.00	 3458.14	-1662.35	 1794.44
     43.5190	 3228.00	 3410.96	-1722.17	 1793.45
     43.5450	 3143.00	 3365.38	-1761.60	 1792.47
     43.5710	 3010.00	 3321.45	-1850.66	 1791.50
     43.5970	 2969.00	 3279.18	-1849.39	 1790.54
     43.6230	 2894.00	 3238.57	-1883.78	 1789.59
     43.6490	 2891.00	 3199.61	-1847.82	 1788.65
     43.6750	 2732.00	 3162.28	-1969.50	 1787.72
     43.7010	 2652.00	 3126.54	-2013.75	 1786.80
     43.7270	 2618.00	 3092.34	-2013.55	 1785.89
     43.7530	 2618.00	 3059.64	-1980.85	 1785.00
     43.7790	 2619.00	 3028.41	-1948.62	 1784.11
     43.8050	 2572.00	 2998.56	-1965.77	 1783.24
     43.8310	 2484.00	 2970.06	-2025.27	 1782.37
     43.8570	 2586.00	 2942.84	-1896.05	 1781.52
     43.8830	 2513.00	 2916.86	-1943.07	 1780.67
     43.9090	 2531.00	 2892.05	-1900.26	 1779.84
     43.9350	 2435.00	 2868.37	-1972.58	 1779.01
     43.9610	 2433.00	 2845.75	-1951.96	 1778.20
     43.9870	 2484.00	 2824.16	-1879.37	 1777.40
     44.0130	 2425.00	 2803.53	-1917.75	 1776.60
     44.0390	 2466.00	 2783.83	-1857.04	 1775.82
     44.0650	 2469.00	 2765.01	-1835.22	 1775.05
     44.0910	 2520.00	 2747.02	-1766.23	 1774.29
     44.1170	 2523.00	 2729.81	-1746.03	 1773.53
     44.1430	 2499.00	 2713.36	-1753.57	 1772.79
     44.1690	 2426.00	 2697.62	-1810.83	 1772.06
     44.1950	 2485.00	 2682.56	-1736.77	 1771.34
     44.2210	 2490.00	 2668.14	-1717.35	 1770.62
     44.2470	 2454.00	 2654.33	-1739.54	 1769.92
     44.2730	 2558.00	 2641.10	-1622.31	 1769.23
     44.2990	 2532.00	 2628.42	-1635.63	 1768.55
     44.3250	 2427.00	 2616.26	-1728.48	 1767.87
     44.3510	 2473.00	 2604.60	-1670.82	 1767.21
     44.3770	 2443.00	 2593.42	-1689.63	 1766.56
     44.4030	 2512.00	 2582.68	-1609.89	 1765.91
     44.4290	 2449.00	 2572.37	-1662.58	 1765.28
     44.4550	 2423.00	 2562.47	-1678.68	 1764.65
     44.4810	 2421.00	 2552.95	-1671.17	 1764.04
     44.5070	 2486.00	 2543.81	-1597.02	 1763.43
     44.5330	 2452.00	 2535.01	-1622.22	 1762.84
     44.5590	 2382.00	 2526.55	-1683.76	 1762.25
     44.5850	 2416.00	 2518.41	-1641.62	 1761.67
     44.6110	 2389.00	 2510.57	-1660.79	 1761.11
     44.6370	 2374.00	 2503.03	-1668.24	 1760.55
     44.6630	 2388.00	 2495.76	-1646.97	 1760.00
     44.6890	 2430.00	 2488.76	-1597.97	 1759.46
     44.7150	 2428.00	 2482.01	-1593.22	 1758.93
     44.7410	 2492.00	 2475.51	-1522.72	 1758.41
     44.7670	 2445.00	 2469.23	-1563.45	 1757.90
     44.7930	 2452.00	 2463.18	-1550.40	 1757.39
     44.8190	 2464.00	 2457.35	-1532.56	 1756.90
     44.8450	 2424.00	 2451.71	-1566.93	 1756.41
     44.8710	 2468.00	 2446.28	-1517.49	 1755.94
     44.8970	 2462.00	 2441.03	-1518.25	 1755.47
     44.9230	 2509.00	 2435.97	-1466.18	 1755.01
     44.9490	 2397.00	 2431.07	-1573.29	 1754.56
     44.9750	 2354.00	 2426.35	-1611.56	 1754.12
     45.0010	 2352.00	 2421.78	-1609.00	 1753.69
     45.0270	 2388.00	 2417.38	-1568.59	 1753.27
     45.0530	 2450.00	 2413.11	-1502.33	 1752.86
     45.0790	 2383.00	 2409.00	-1565.21	 1752.45
     45.1050	 2361.00	 2405.02	-1583.23	 1752.05
     45.1310	 2394.00	 2401.18	-1546.39	 1751.67
     45.1570	 2393.00	 2397.46	-1543.68	 1751.29
     45.1830	 2390.00	 2393.88	-1543.09	 1750.92
     45.2090	 2400.00	 2390.41	-1529.62	 1750.55
     45.2350	 2418.00	 2387.06	-1508.27	 1750.20
     45.2610	 2383.00	 2383.82	-1540.04	 1749.85
     45.2870	 2386.00	 2380.70	-1533.91	 1749.52
     45.3130	 2438.00	 2377.68	-1478.90	 1749.19
     45.3390	 2389.00	 2374.77	-1524.98	 1748.87
     45.3650	 2387.00	 2371.96	-1524.17	 1748.55
     45.3910	 2437.00	 2369.25	-1471.46	 1748.25
     45.4170	 2392.00	 2366.64	-1513.85	 1747.95
     45.4430	 2362.00	 2364.11	-1541.33	 1747.66
     45.4690	 2357.00	 2361.69	-1543.90	 1747.38
     45.4950	 2328.00	 2359.35	-1570.56	 1747.11
     45.5210	 2340.00	 2357.10	-1556.31	 1746.85
     45.5470	 2340.00	 2354.94	-1554.15	 1746.59
     45.5730	 2357.00	 2352.86	-1535.07	 1746.34
     45.5990	 2365.00	 2350.87	-1525.08	 1746.10
     45.6250	 2369.00	 2348.96	-1519.17	 1745.87
     45.6510	 2385.00	 2347.13	-1501.34	 1745.64
     45.6770	 2345.00	 2345.38	-1539.59	 1745.42
     45.7030	 2383.00	 2343.71	-1499.92	 1745.21
     45.7290	 2398.00	 2342.12	-1483.33	 1745.01
     45.7550	 2385.00	 2340.61	-1494.82	 1744.81
     45.7810	 2380.00	 2339.17	-1498.39	 1744.63
     45.8070	 2304.00	 2337.82	-1573.03	 1744.45
     45.8330	 2359.00	 2336.54	-1516.75	 1744.27
     45.8590	 2362.00	 2335.34	-1512.55	 1744.11
     45.8850	 2338.00	 2334.22	-1535.43	 1743.95
     45.9110	 2385.00	 2333.17	-1487.38	 1743.80
     45.9370	 2410.00	 2332.20	-1461.41	 1743.65
     45.9630	 2430.00	 2331.31	-1440.52	 1743.51
     45.9890	 2421.00	 2330.50	-1448.71	 1743.38
     46.0150	 2418.00	 2329.77	-1450.98	 1743.26
     46.0410	 2424.00	 2329.12	-1444.33	 1743.15
     46.0670	 2334.00	 2328.55	-1533.76	 1743.04
     46.0930	 2360.00	 2328.06	-1507.27	 1742.93
     46.1190	 2377.00	 2327.65	-1489.86	 1742.84
     46.1450	 2290.00	 2327.33	-1576.54	 1742.75
     46.1710	 2353.00	 2327.09	-1513.30	 1742.67
     46.1970	 2415.00	 2326.94	-1451.15	 1742.59
     46.2230	 2438.00	 2326.88	-1428.09	 1742.52
     46.2490	 2333.00	 2326.90	-1533.11	 1742.46
     46.2750	 2294.00	 2327.01	-1572.22	 1742.41
     46.3010	 2365.00	 2327.21	-1501.42	 1742.36
     46.3270	 2398.00	 2327.50	-1468.71	 1742.31
     46.3530	 2417.00	 2327.88	-1450.09	 1742.28
     46.3790	 2371.00	 2328.35	-1496.56	 1742.25
     46.4050	 2346.00	 2328.90	-1522.11	 1742.22
     46.4310	 2350.00	 2329.54	-1518.75	 1742.21
     46.4570	 2388.00	 2330.27	-1481.48	 1742.20
     46.4830	 2419.00	 2331.07	-1451.28	 1742.19
     46.5090	 2436.00	 2331.95	-1435.16	 1742.19
     46.5350	 2340.00	 2332.90	-1532.11	 1742.20
     46.5610	 2370.00	 2333.91	-1503.13	 1742.21
     46.5870	 2436.00	 2334.98	-1438.19	 1742.23
     46.6130	 2264.00	 2336.09	-1611.31	 1742.25
     46.6390	 2322.00	 2337.24	-1554.45	 1742.28
     46.6650	 2273.00	 2338.40	-1604.61	 1742.32
     46.6910	 2362.00	 2339.57	-1516.78	 1742.36
     46.7170	 2306.00	 2340.72	-1573.93	 1742.41
     46.7430	 2395.00	 2341.84	-1486.06	 1742.46
     46.7690	 2337.00	 2342.91	-1545.13	 1742.52
     46.7950	 2402.00	 2343.91	-1481.12	 1742.59
     46.8210	 2362.00	 2344.81	-1522.03	 1742.66
     46.8470	 2383.00	 2345.60	-1501.81	 1742.73
     46.8730	 2397.00	 2346.26	-1488.47	 1742.81
     46.8990	 2443.00	 2346.75	-1442.97	 1742.90
     46.9250	 2372.00	 2347.08	-1514.29	 1742.99
     46.9510	 2308.00	 2347.22	-1578.43	 1743.08
     46.9770	 2332.00	 2347.16	-1554.37	 1743.19
     47.0030	 2343.00	 2346.89	-1543.10	 1743.29
     47.0290	 2348.00	 2346.41	-1537.62	 1743.40
     47.0550	 2414.00	 2345.72	-1470.93	 1743.52
     47.0810	 2330.00	 2344.81	-1554.03	 1743.64
     47.1070	 2397.00	 2343.71	-1485.92	 1743.77
     47.1330	 2439.00	 2342.42	-1442.63	 1743.90
     47.1590	 2308.00	 2340.94	-1572.16	 1744.04
     47.1850	 2349.00	 2339.31	-1529.53	 1744.18
     47.2110	 2255.00	 2337.54	-1621.75	 1744.32
     47.2370	 2333.00	 2335.65	-1541.86	 1744.47
     47.2630	 2284.00	 2333.65	-1588.86	 1744.63
     47.2890	 2360.00	 2331.57	-1510.78	 1744.79
     47.3150	 2356.00	 2329.43	-1512.64	 1744.95
     47.3410	 2355.00	 2327.24	-1511.45	 1745.12
     47.3670	 2381.00	 2325.03	-1483.25	 1745.29
     47.3930	 2323.00	 2322.82	-1539.03	 1745.47
     47.4190	 2366.00	 2320.60	-1493.82	 1745.65
     47.4450	 2339.00	 2318.41	-1518.62	 1745.83
     47.4710	 2335.00	 2316.25	-1520.46	 1746.02
     47.4970	 2414.00	 2314.13	-1439.34	 1746.21
     47.5230	 2392.00	 2312.05	-1459.27	 1746.41
     47.5490	 2401.00	 2310.03	-1448.25	 1746.61
     47.5750	 2385.00	 2308.07	-1462.29	 1746.82
     47.6010	 2348.00	 2306.18	-1497.39	 1747.03
     47.6270	 2270.00	 2304.35	-1573.56	 1747.24
     47.6530	 2282.00	 2302.59	-1559.80	 1747.46
     47.6790	 2278.00	 2300.90	-1562.11	 1747.68
     47.7050	 2297.00	 2299.27	-1541.49	 1747.90
     47.7310	 2363.00	 2297.72	-1473.93	 1748.13
     47.7570	 2390.00	 2296.24	-1445.45	 1748.36
     47.7830	 2426.00	 2294.82	-1408.03	 1748.60
     47.8090	 2358.00	 2293.47	-1474.68	 1748.84
     47.8350	 2351.00	 2292.18	-1480.40	 1749.08
     47.8610	 2363.00	 2290.96	-1467.17	 1749.32
     47.8870	 2351.00	 2289.80	-1478.01	 1749.57
     47.9130	 2340.00	 2288.69	-1487.90	 1749.82
     47.9390	 2372.00	 2287.64	-1454.86	 1750.08
     47.9650	 2392.00	 2286.65	-1433.86	 1750.34
     47.9910	 2345.00	 2285.71	-1479.92	 1750.60
     48.0170	 2354.00	 2284.82	-1470.03	 1750.86
     48.0430	 2374.00	 2283.98	-1449.19	 1751.13
     48.0690	 2325.00	 2283.18	-1497.39	 1751.40
     48.0950	 2338.00	 2282.43	-1483.64	 1751.67
     48.1210	 2319.00	 2281.72	-1501.93	 1751.95
     48.1470	 2304.00	 2281.05	-1516.26	 1752.23
     48.1730	 2324.00	 2280.42	-1495.63	 1752.51
     48.1990	 2323.00	 2279.83	-1496.04	 1752.79
     48.2250	 2368.00	 2279.27	-1450.48	 1753.08
     48.2510	 2366.00	 2278.75	-1451.96	 1753.37
     48.2770	 2361.00	 2278.26	-1456.47	 1753.66
     48.3030	 2383.00	 2277.80	-1434.01	 1753.96
     48.3290	 2384.00	 2277.37	-1432.58	 1754.25
     48.3550	 2399.00	 2276.97	-1417.18	 1754.55
     48.3810	 2345.00	 2276.60	-1470.81	 1754.85
     48.4070	 2304.00	 2276.25	-1511.46	 1755.16
     48.4330	 2314.00	 2275.93	-1501.14	 1755.46
     48.4590	 2320.00	 2275.63	-1494.84	 1755.77
     48.4850	 2433.00	 2275.36	-1381.57	 1756.08
     48.5110	 2469.00	 2275.11	-1345.32	 1756.40
     48.5370	 2323.00	 2274.88	-1491.09	 1756.71
     48.5630	 2353.00	 2274.67	-1460.88	 1757.03
     48.5890	 2400.00	 2274.48	-1413.69	 1757.34
     48.6150	 2345.00	 2274.31	-1468.52	 1757.67
     48.6410	 2400.00	 2274.16	-1413.37	 1757.99
     48.6670	 2421.00	 2274.02	-1392.23	 1758.31
     48.6930	 2384.00	 2273.91	-1429.12	 1758.64
     48.7190	 2401.00	 2273.80	-1412.02	 1758.96
     48.7450	 2407.00	 2273.72	-1405.93	 1759.29
     48.7710	 2430.00	 2273.65	-1382.86	 1759.62
     48.7970	 2431.00	 2273.59	-1381.81	 1759.96
     48.8230	 2377.00	 2273.55	-1435.77	 1760.29
     48.8490	 2340.00	 2273.53	-1472.74	 1760.62
     48.8750	 2320.00	 2273.51	-1492.73	 1760.96
     48.9010	 2402.00	 2273.51	-1410.72	 1761.30
     48.9270	 2368.00	 2273.52	-1444.74	 1761.64
     48.9530	 2386.00	 2273.55	-1426.76	 1761.98
     48.9790	 2422.00	 2273.58	-1390.80	 1762.32
     49.0050	 2460.00	 2273.63	-1352.84	 1762.66
     49.0310	 2336.00	 2273.69	-1476.90	 1763.00
     49.0570	 2386.00	 2273.76	-1426.97	 1763.35
     49.0830	 2408.00	 2273.83	-1405.05	 1763.69
     49.1090	 2467.00	 2273.92	-1346.14	 1764.04
     49.1350	 2361.00	 2274.02	-1452.23	 1764.39
     49.1610	 2414.00	 2274.13	-1399.34	 1764.74
     49.1870	 2486.00	 2274.25	-1327.46	 1765.08
     49.2130	 2374.00	 2274.37	-1439.58	 1765.43
     49.2390	 2381.00	 2274.51	-1432.72	 1765.78
     49.2650	 2404.00	 2274.65	-1409.86	 1766.13
     49.2910	 2360.00	 2274.80	-1454.01	 1766.49
     49.3170	 2325.00	 2274.96	-1489.17	 1766.84
     49.3430	 2404.00	 2275.13	-1410.34	 1767.19
     49.3690	 2404.00	 2275.31	-1410.52	 1767.54
     49.3950	 2383.00	 2275.49	-1431.70	 1767.90
     49.4210	 2496.00	 2275.68	-1318.89	 1768.25
     49.4470	 2507.00	 2275.88	-1308.09	 1768.60
     49.4730	 2463.00	 2276.08	-1352.29	 1768.96
     49.4990	 2477.00	 2276.29	-1338.50	 1769.31
     49.5250	 2480.00	 2276.51	-1335.72	 1769.67
     49.5510	 2525.00	 2276.73	-1290.95	 1770.02
     49.5770	 2470.00	 2276.97	-1346.18	 1770.38
     49.6030	 2402.00	 2277.20	-1414.42	 1770.73
     49.6290	 2457.00	 2277.45	-1359.66	 1771.09
     49.6550	 2334.00	 2277.70	-1482.91	 1771.44
     49.6810	 2404.00	 2277.95	-1413.17	 1771.80
     49.7070	 2443.00	 2278.22	-1374.43	 1772.15
     49.7330	 2437.00	 2278.48	-1380.70	 1772.51
     49.7590	 2496.00	 2278.76	-1321.97	 1772.86
     49.7850	 2478.00	 2279.04	-1340.25	 1773.21
     49.8110	 2540.00	 2279.32	-1278.53	 1773.57
     49.8370	 2365.00	 2279.61	-1453.82	 1773.92
     49.8630	 2433.00	 2279.91	-1386.12	 1774.27
     49.8890	 2498.00	 2280.21	-1321.42	 1774.63
     49.9150	 2495.00	 2280.51	-1324.73	 1774.98
     49.9410	 2509.00	 2280.83	-1311.04	 1775.33
     49.9670	 2498.00	 2281.14	-1322.36	 1775.68
     49.9930	 2495.00	 2281.47	-1325.68	 1776.03
     50.0190	 2543.00	 2281.79	-1278.01	 1776.38
     50.0450	 2569.00	 2282.13	-1252.34	 1776.73
     50.0710	 2518.00	 2282.46	-1303.68	 1777.07
     50.0970	 2461.00	 2282.81	-1361.02	 1777.42
     50.1230	 2450.00	 2283.15	-1372.37	 1777.77
     50.1490	 2460.00	 2283.51	-1362.72	 1778.11
     50.1750	 2482.00	 2283.86	-1341.08	 1778.46
     50.2010	 2433.00	 2284.23	-1390.44	 1778.80
     50.2270	 2394.00	 2284.60	-1429.81	 1779.14
     50.2530	 2426.00	 2284.97	-1398.18	 1779.48
     50.2790	 2481.00	 2285.35	-1343.56	 1779.82
     50.3050	 2452.00	 2285.73	-1372.94	 1780.16
     50.3310	 2422.00	 2286.12	-1403.33	 1780.50
     50.3570	 2443.00	 2286.51	-1382.73	 1780.83
     50.3830	 2492.00	 2286.91	-1334.12	 1781.17
     50.4090	 2500.00	 2287.32	-1326.53	 1781.50
     50.4350	 2425.00	 2287.73	-1401.94	 1781.84
     50.4610	 2417.00	 2288.14	-1410.35	 1782.17
     50.4870	 2428.00	 2288.56	-1399.77	 1782.50
     50.5130	 2462.00	 2288.99	-1366.20	 1782.82
     50.5390	 2406.00	 2289.42	-1422.63	 1783.15
     50.5650	 2429.00	 2289.86	-1400.07	 1783.48
     50.5910	 2488.00	 2290.30	-1341.51	 1783.80
     50.6170	 2464.00	 2290.75	-1365.96	 1784.12
     50.6430	 2430.00	 2291.20	-1400.42	 1784.44
     50.6690	 2388.00	 2291.66	-1442.88	 1784.76
     50.6950	 2354.00	 2292.13	-1477.34	 1785.08
     50.7210	 2387.00	 2292.61	-1444.82	 1785.39
     50.7470	 2478.00	 2293.09	-1354.30	 1785.70
     50.7730	 2477.00	 2293.57	-1355.79	 1786.02
     50.7990	 2440.00	 2294.07	-1393.28	 1786.33
     50.8250	 2478.00	 2294.57	-1355.78	 1786.63
     50.8510	 2486.00	 2295.08	-1348.29	 1786.94
     50.8770	 2444.00	 2295.59	-1390.81	 1787.24
     50.9030	 2370.00	 2296.12	-1465.33	 1787.54
     50.9290	 2336.00	 2296.65	-1499.86	 1787.84
     50.9550	 2400.00	 2297.19	-1436.40	 1788.14
     50.9810	 2390.00	 2297.74	-1446.95	 1788.43
     51.0070	 2340.00	 2298.30	-1497.51	 1788.73
     51.0330	 2371.00	 2298.86	-1467.08	 1789.02
     51.0590	 2389.00	 2299.44	-1449.65	 1789.31
     51.0850	 2403.00	 2300.03	-1436.24	 1789.59
     51.1110	 2398.00	 2300.62	-1441.84	 1789.88
     51.1370	 2395.00	 2301.23	-1445.44	 1790.16
     51.1630	 2438.00	 2301.85	-1403.06	 1790.44
     51.1890	 2418.00	 2302.48	-1423.69	 1790.71
     51.2150	 2349.00	 2303.12	-1493.33	 1790.99
     51.2410	 2394.00	 2303.77	-1448.99	 1791.26
     51.2670	 2430.00	 2304.44	-1413.65	 1791.53
     51.2930	 2416.00	 2305.12	-1428.33	 1791.79
     51.3190	 2381.00	 2305.81	-1464.03	 1792.06
     51.3450	 2297.00	 2306.52	-1548.73	 1792.32
     51.3710	 2348.00	 2307.24	-1498.46	 1792.58
     51.3970	 2379.00	 2307.98	-1468.20	 1792.83
     51.4230	 2376.00	 2308.74	-1471.95	 1793.09
     51.4490	 2285.00	 2309.51	-1563.73	 1793.34
     51.4750	 2408.00	 2310.30	-1441.52	 1793.58
     51.5010	 2342.00	 2311.12	-1508.33	 1793.83
     51.5270	 2330.00	 2311.95	-1521.16	 1794.07
     51.5530	 2370.00	 2312.80	-1482.01	 1794.31
     51.5790	 2373.00	 2313.67	-1479.88	 1794.54
     51.6050	 2334.00	 2314.57	-1519.78	 1794.78
     51.6310	 2352.00	 2315.49	-1502.70	 1795.01
     51.6570	 2313.00	 2316.43	-1542.64	 1795.24
     51.6830	 2300.00	 2317.40	-1556.62	 1795.46
     51.7090	 2361.00	 2318.40	-1496.62	 1795.68
     51.7350	 2379.00	 2319.43	-1479.64	 1795.90
     51.7610	 2421.00	 2320.49	-1438.70	 1796.11
     51.7870	 2333.00	 2321.58	-1527.80	 1796.33
     51.8130	 2271.00	 2322.71	-1590.92	 1796.53
     51.8390	 2353.00	 2323.87	-1510.08	 1796.74
     51.8650	 2350.00	 2325.07	-1514.28	 1796.94
     51.8910	 2361.00	 2326.31	-1504.52	 1797.14
     51.9170	 2315.00	 2327.59	-1551.80	 1797.34
     51.9430	 2411.00	 2328.91	-1457.12	 1797.53
     51.9690	 2318.00	 2330.28	-1551.49	 1797.72
     51.9950	 2347.00	 2331.70	-1523.91	 1797.90
     52.0210	 2324.00	 2333.17	-1548.38	 1798.08
     52.0470	 2307.00	 2334.69	-1566.90	 1798.26
     52.0730	 2444.00	 2336.27	-1431.48	 1798.44
     52.0990	 2345.00	 2337.91	-1532.12	 1798.61
     52.1250	 2433.00	 2339.61	-1445.82	 1798.78
     52.1510	 2340.00	 2341.38	-1540.59	 1798.94
     52.1770	 2386.00	 2343.22	-1496.43	 1799.10
     52.2030	 2470.00	 2345.12	-1414.34	 1799.26
     52.2290	 2389.00	 2347.11	-1497.32	 1799.42
     52.2550	 2290.00	 2349.18	-1598.39	 1799.57
     52.2810	 2331.00	 2351.33	-1559.54	 1799.71
     52.3070	 2332.00	 2353.57	-1560.78	 1799.86
     52.3330	 2349.00	 2355.90	-1546.11	 1800.00
     52.3590	 2373.00	 2358.33	-1524.54	 1800.13
     52.3850	 2316.00	 2360.86	-1584.07	 1800.27
     52.4110	 2392.00	 2363.49	-1510.71	 1800.39
     52.4370	 2374.00	 2366.24	-1531.45	 1800.52
     52.4630	 2328.00	 2369.10	-1580.31	 1800.64
     52.4890	 2342.00	 2372.07	-1569.28	 1800.76
     52.5150	 2363.00	 2375.17	-1551.38	 1800.87
     52.5410	 2394.00	 2378.39	-1523.60	 1800.98
     52.5670	 2229.00	 2381.74	-1691.95	 1801.08
     52.5930	 2271.00	 2385.21	-1653.42	 1801.19
     52.6190	 2310.00	 2388.82	-1618.03	 1801.28
     52.6450	 2301.00	 2392.55	-1630.76	 1801.38
     52.6710	 2295.00	 2396.42	-1640.63	 1801.47
     52.6970	 2386.00	 2400.41	-1553.62	 1801.55
     52.7230	 2354.00	 2404.52	-1589.73	 1801.64
     52.7490	 2349.00	 2408.75	-1598.97	 1801.71
     52.7750	 2337.00	 2413.09	-1615.30	 1801.79
     52.8010	 2298.00	 2417.53	-1658.74	 1801.86
     52.8270	 2320.00	 2422.04	-1641.26	 1801.92
     52.8530	 2315.00	 2426.63	-1650.84	 1801.99
     52.8790	 2336.00	 2431.25	-1634.47	 1802.04
     52.9050	 2380.00	 2435.90	-1595.12	 1802.10
     52.9310	 2282.00	 2440.55	-1697.76	 1802.15
     52.9570	 2273.00	 2445.15	-1711.36	 1802.19
     52.9830	 2231.00	 2449.68	-1757.89	 1802.23
     53.0090	 2237.00	 2454.10	-1756.31	 1802.27
     53.0350	 2317.00	 2458.36	-1680.58	 1802.30
     53.0610	 2336.00	 2462.43	-1665.65	 1802.33
     53.0870	 2311.00	 2466.27	-1694.48	 1802.35
     53.1130	 2298.00	 2469.81	-1711.03	 1802.37
     53.1390	 2301.00	 2473.03	-1711.25	 1802.39
     53.1650	 2246.00	 2475.88	-1769.10	 1802.40
     53.1910	 2261.00	 2478.33	-1756.54	 1802.41
     53.2170	 2314.00	 2480.34	-1705.55	 1802.41
     53.2430	 2362.00	 2481.88	-1659.09	 1802.41
     53.2690	 2334.00	 2482.93	-1688.14	 1802.41
     53.2950	 2271.00	 2483.49	-1751.70	 1802.40
     53.3210	 2216.00	 2483.54	-1806.75	 1802.38
     53.3470	 2231.00	 2483.09	-1791.30	 1802.36
     53.3730	 2283.00	 2482.15	-1738.36	 1802.34
     53.3990	 2248.00	 2480.75	-1771.96	 1802.31
     53.4250	 2210.00	 2478.90	-1808.11	 1802.28
     53.4510	 2259.00	 2476.64	-1756.85	 1802.25
     53.4770	 2260.00	 2474.01	-1753.22	 1802.20
     53.5030	 2275.00	 2471.04	-1735.25	 1802.16
     53.5290	 2308.00	 2467.78	-1699.00	 1802.11
     53.5550	 2269.00	 2464.28	-1734.49	 1802.06
     53.5810	 2255.00	 2460.57	-1744.79	 1802.00
     53.6070	 2249.00	 2456.71	-1746.92	 1801.94
     53.6330	 2257.00	 2452.72	-1734.93	 1801.87
     53.6590	 2259.00	 2448.65	-1728.87	 1801.80
     53.6850	 2224.00	 2444.54	-1759.76	 1801.72
     53.7110	 2250.00	 2440.42	-1729.63	 1801.64
     53.7370	 2295.00	 2436.31	-1680.52	 1801.56
     53.7630	 2287.00	 2432.24	-1684.45	 1801.47
     53.7890	 2277.00	 2428.24	-1690.45	 1801.37
     53.8150	 2257.00	 2424.31	-1706.53	 1801.27
     53.8410	 2270.00	 2420.49	-1689.70	 1801.17
     53.8670	 2291.00	 2416.77	-1664.98	 1801.06
     53.8930	 2221.00	 2413.17	-1731.39	 1800.95
     53.9190	 2242.00	 2409.70	-1706.91	 1800.83
     53.9450	 2321.00	 2406.36	-1624.57	 1800.71
     53.9710	 2323.00	 2403.15	-1619.37	 1800.59
     53.9970	 2290.00	 2400.09	-1649.30	 1800.46
     54.0230	 2298.00	 2397.15	-1638.37	 1800.32
     54.0490	 2296.00	 2394.36	-1637.57	 1800.18
     54.0750	 2300.00	 2391.70	-1630.92	 1800.04
     54.1010	 2214.00	 2389.18	-1714.39	 1799.89
     54.1270	 2229.00	 2386.79	-1697.00	 1799.74
     54.1530	 2273.00	 2384.53	-1650.74	 1799.58
     54.1790	 2324.00	 2382.39	-1597.60	 1799.42
     54.2050	 2289.00	 2380.37	-1630.59	 1799.25
     54.2310	 2296.00	 2378.48	-1621.69	 1799.08
     54.2570	 2335.00	 2376.70	-1580.91	 1798.90
     54.2830	 2341.00	 2375.03	-1573.24	 1798.72
     54.3090	 2291.00	 2373.47	-1621.68	 1798.54
     54.3350	 2310.00	 2372.01	-1601.23	 1798.35
     54.3610	 2306.00	 2370.66	-1603.87	 1798.15
     54.3870	 2367.00	 2369.40	-1541.62	 1797.96
     54.4130	 2369.00	 2368.24	-1538.45	 1797.75
     54.4390	 2357.00	 2367.17	-1549.38	 1797.54
     54.4650	 2299.00	 2366.19	-1606.40	 1797.33
     54.4910	 2286.00	 2365.30	-1618.51	 1797.11
     54.5170	 2391.00	 2364.49	-1512.70	 1796.89
     54.5430	 2413.00	 2363.76	-1489.97	 1796.67
     54.5690	 2318.00	 2363.11	-1584.32	 1796.43
     54.5950	 2285.00	 2362.54	-1616.75	 1796.20
     54.6210	 2333.00	 2362.04	-1568.26	 1795.96
     54.6470	 2287.00	 2361.63	-1613.84	 1795.71
     54.6730	 2398.00	 2361.28	-1502.49	 1795.46
     54.6990	 2345.00	 2361.01	-1555.22	 1795.21
     54.7250	 2428.00	 2360.81	-1472.02	 1794.95
     54.7510	 2363.00	 2360.68	-1536.89	 1794.69
     54.7770	 2356.00	 2360.62	-1543.83	 1794.42
     54.8030	 2316.00	 2360.63	-1583.84	 1794.15
     54.8290	 2350.00	 2360.71	-1549.92	 1793.87
     54.8550	 2337.00	 2360.86	-1563.07	 1793.59
     54.8810	 2329.00	 2361.08	-1571.29	 1793.30
     54.9070	 2439.00	 2361.37	-1461.58	 1793.01
     54.9330	 2373.00	 2361.73	-1527.94	 1792.72
     54.9590	 2385.00	 2362.16	-1516.37	 1792.42
     54.9850	 2418.00	 2362.66	-1483.87	 1792.11
     55.0110	 2387.00	 2363.24	-1515.45	 1791.80
     55.0370	 2461.00	 2363.89	-1442.10	 1791.49
     55.0630	 2421.00	 2364.62	-1482.83	 1791.17
     55.0890	 2356.00	 2365.42	-1548.64	 1790.85
     55.1150	 2341.00	 2366.31	-1564.52	 1790.52
     55.1410	 2384.00	 2367.28	-1522.49	 1790.19
     55.1670	 2396.00	 2368.33	-1511.54	 1789.86
     55.1930	 2444.00	 2369.46	-1464.67	 1789.52
     55.2190	 2440.00	 2370.69	-1469.90	 1789.17
     55.2450	 2377.00	 2372.01	-1534.22	 1788.82
     55.2710	 2437.00	 2373.42	-1475.63	 1788.47
     55.2970	 2398.00	 2374.93	-1516.14	 1788.11
     55.3230	 2507.00	 2376.55	-1408.76	 1787.75
     55.3490	 2476.00	 2378.27	-1441.48	 1787.38
     55.3750	 2483.00	 2380.10	-1436.31	 1787.01
     55.4010	 2455.00	 2382.04	-1466.25	 1786.63
     55.4270	 2429.00	 2384.11	-1494.32	 1786.25
     55.4530	 2381.00	 2386.30	-1544.51	 1785.87
     55.4790	 2454.00	 2388.62	-1473.83	 1785.48
     55.5050	 2473.00	 2391.08	-1457.29	 1785.08
     55.5310	 2412.00	 2393.68	-1520.89	 1784.69
     55.5570	 2442.00	 2396.43	-1493.64	 1784.28
     55.5830	 2525.00	 2399.34	-1413.55	 1783.88
     55.6090	 2508.00	 2402.41	-1433.62	 1783.47
     55.6350	 2442.00	 2405.65	-1502.86	 1783.05
     55.6610	 2459.00	 2409.06	-1489.28	 1782.63
     55.6870	 2475.00	 2412.67	-1476.88	 1782.21
     55.7130	 2496.00	 2416.47	-1459.69	 1781.78
     55.7390	 2516.00	 2420.48	-1443.69	 1781.34
     55.7650	 2534.00	 2424.71	-1429.92	 1780.91
     55.7910	 2502.00	 2429.15	-1466.36	 1780.47
     55.8170	 2453.00	 2433.83	-1520.05	 1780.02
     55.8430	 2453.00	 2438.76	-1524.97	 1779.57
     55.8690	 2532.00	 2443.94	-1451.16	 1779.12
     55.8950	 2546.00	 2449.39	-1442.60	 1778.66
     55.9210	 2510.00	 2455.12	-1484.33	 1778.20
     55.9470	 2490.00	 2461.13	-1510.34	 1777.73
     55.9730	 2545.00	 2467.44	-1461.65	 1777.26
     55.9990	 2526.00	 2474.05	-1487.27	 1776.78
     56.0250	 2520.00	 2480.99	-1500.20	 1776.31
     56.0510	 2561.00	 2488.24	-1466.46	 1775.82
     56.0770	 2567.00	 2495.83	-1468.04	 1775.33
     56.1030	 2639.00	 2503.76	-1403.97	 1774.84
     56.1290	 2612.00	 2512.02	-1439.23	 1774.35
     56.1550	 2532.00	 2520.63	-1527.84	 1773.85
     56.1810	 2549.00	 2529.57	-1519.78	 1773.34
     56.2070	 2591.00	 2538.85	-1487.06	 1772.84
     56.2330	 2593.00	 2548.45	-1494.66	 1772.33
     56.2590	 2533.00	 2558.36	-1564.58	 1771.81
     56.2850	 2584.00	 2568.56	-1523.78	 1771.29
     56.3110	 2689.00	 2579.03	-1429.24	 1770.77
     56.3370	 2702.00	 2589.73	-1426.94	 1770.24
     56.3630	 2678.00	 2600.61	-1461.83	 1769.71
     56.3890	 2673.00	 2611.64	-1477.85	 1769.17
     56.4150	 2675.00	 2622.75	-1486.96	 1768.63
     56.4410	 2651.00	 2633.88	-1522.09	 1768.09
     56.4670	 2661.00	 2644.95	-1523.16	 1767.54
     56.4930	 2624.00	 2655.87	-1571.08	 1766.99
     56.5190	 2557.00	 2666.55	-1648.77	 1766.44
     56.5450	 2550.00	 2676.90	-1666.11	 1765.88
     56.5710	 2588.00	 2686.80	-1638.01	 1765.32
     56.5970	 2627.00	 2696.14	-1608.36	 1764.75
     56.6230	 2693.00	 2704.82	-1551.03	 1764.18
     56.6490	 2633.00	 2712.71	-1618.92	 1763.61
     56.6750	 2618.00	 2719.71	-1640.92	 1763.03
     56.7010	 2653.00	 2725.71	-1611.93	 1762.45
     56.7270	 2643.00	 2730.64	-1626.85	 1761.86
     56.7530	 2673.00	 2734.40	-1600.61	 1761.27
     56.7790	 2665.00	 2736.93	-1611.14	 1760.68
     56.8050	 2644.00	 2738.19	-1633.40	 1760.09
     56.8310	 2602.00	 2738.15	-1675.37	 1759.49
     56.8570	 2594.00	 2736.81	-1682.02	 1758.88
     56.8830	 2659.00	 2734.18	-1614.39	 1758.28
     56.9090	 2754.00	 2730.29	-1515.50	 1757.67
     56.9350	 2690.00	 2725.20	-1574.41	 1757.05
     56.9610	 2625.00	 2718.97	-1633.18	 1756.44
     56.9870	 2607.00	 2711.68	-1643.90	 1755.82
     57.0130	 2576.00	 2703.44	-1666.65	 1755.19
     57.0390	 2668.00	 2694.34	-1565.56	 1754.57
     57.0650	 2671.00	 2684.50	-1552.71	 1753.93
     57.0910	 2632.00	 2674.01	-1581.23	 1753.30
     57.1170	 2673.00	 2663.00	-1529.21	 1752.66
     57.1430	 2640.00	 2651.57	-1550.78	 1752.02
     57.1690	 2708.00	 2639.82	-1471.03	 1751.38
     57.1950	 2612.00	 2627.85	-1555.07	 1750.73
     57.2210	 2651.00	 2615.75	-1503.97	 1750.08
     57.2470	 2706.00	 2603.61	-1436.82	 1749.43
     57.2730	 2727.00	 2591.49	-1403.70	 1748.77
     57.2990	 2663.00	 2579.46	-1455.67	 1748.11
     57.3250	 2657.00	 2567.57	-1449.79	 1747.44
     57.3510	 2625.00	 2555.88	-1470.09	 1746.78
     57.3770	 2583.00	 2544.42	-1500.64	 1746.11
     57.4030	 2603.00	 2533.23	-1469.44	 1745.43
     57.4290	 2626.00	 2522.32	-1435.53	 1744.76
     57.4550	 2557.00	 2511.72	-1493.93	 1744.08
     57.4810	 2672.00	 2501.44	-1368.65	 1743.40
     57.5070	 2512.00	 2491.50	-1518.71	 1742.71
     57.5330	 2541.00	 2481.89	-1480.10	 1742.02
     57.5590	 2593.00	 2472.62	-1418.83	 1741.33
     57.5850	 2625.00	 2463.68	-1377.89	 1740.64
     57.6110	 2579.00	 2455.08	-1415.29	 1739.94
     57.6370	 2585.00	 2446.81	-1401.02	 1739.24
     57.6630	 2544.00	 2438.85	-1434.07	 1738.54
     57.6890	 2645.00	 2431.21	-1325.43	 1737.83
     57.7150	 2554.00	 2423.88	-1409.09	 1737.12
     57.7410	 2639.00	 2416.84	-1317.05	 1736.41
     57.7670	 2568.00	 2410.08	-1381.29	 1735.70
     57.7930	 2661.00	 2403.60	-1281.81	 1734.98
     57.8190	 2616.00	 2397.38	-1320.59	 1734.26
     57.8450	 2652.00	 2391.41	-1278.62	 1733.54
     57.8710	 2487.00	 2385.68	-1437.89	 1732.81
     57.8970	 2489.00	 2380.19	-1430.40	 1732.09
     57.9230	 2509.00	 2374.92	-1405.13	 1731.36
     57.9490	 2534.00	 2369.86	-1375.07	 1730.62
     57.9750	 2511.00	 2365.00	-1393.21	 1729.89
     58.0010	 2477.00	 2360.33	-1422.55	 1729.15
     58.0270	 2485.00	 2355.85	-1410.07	 1728.41
     58.0530	 2510.00	 2351.55	-1380.76	 1727.67
     58.0790	 2419.00	 2347.41	-1467.62	 1726.92
     58.1050	 2528.00	 2343.43	-1354.65	 1726.17
     58.1310	 2548.00	 2339.61	-1330.82	 1725.42
     58.1570	 2500.00	 2335.93	-1375.14	 1724.67
     58.1830	 2438.00	 2332.39	-1433.60	 1723.91
     58.2090	 2412.00	 2328.98	-1456.19	 1723.16
     58.2350	 2433.00	 2325.70	-1431.91	 1722.40
     58.2610	 2431.00	 2322.54	-1430.75	 1721.63
     58.2870	 2453.00	 2319.49	-1405.70	 1720.87
     58.3130	 2408.00	 2316.56	-1447.77	 1720.10
     58.3390	 2464.00	 2313.73	-1388.94	 1719.33
     58.3650	 2414.00	 2310.99	-1436.21	 1718.56
     58.3910	 2395.00	 2308.36	-1452.57	 1717.79
     58.4170	 2427.00	 2305.82	-1418.03	 1717.02
     58.4430	 2409.00	 2303.36	-1433.57	 1716.24
     58.4690	 2403.00	 2300.99	-1437.20	 1715.46
     58.4950	 2349.00	 2298.70	-1488.92	 1714.68
     58.5210	 2298.00	 2296.49	-1537.70	 1713.89
     58.5470	 2349.00	 2294.35	-1484.57	 1713.11
     58.5730	 2402.00	 2292.29	-1429.50	 1712.32
     58.5990	 2395.00	 2290.29	-1434.51	 1711.53
     58.6250	 2362.00	 2288.36	-1465.58	 1710.74
     58.6510	 2293.00	 2286.50	-1532.71	 1709.95
     58.6770	 2298.00	 2284.69	-1525.91	 1709.15
     58.7030	 2360.00	 2282.95	-1462.16	 1708.36
     58.7290	 2354.00	 2281.27	-1466.48	 1707.56
     58.7550	 2324.00	 2279.63	-1494.85	 1706.76
     58.7810	 2317.00	 2278.06	-1500.27	 1705.96
     58.8070	 2352.00	 2276.53	-1463.75	 1705.15
     58.8330	 2337.00	 2275.06	-1477.27	 1704.35
     58.8590	 2289.00	 2273.64	-1523.85	 1703.54
     58.8850	 2271.00	 2272.26	-1540.48	 1702.73
     58.9110	 2292.00	 2270.94	-1518.15	 1701.92
     58.9370	 2331.00	 2269.65	-1477.86	 1701.11
     58.9630	 2326.00	 2268.41	-1481.63	 1700.30
     58.9890	 2346.00	 2267.22	-1460.43	 1699.48
     59.0150	 2288.00	 2266.07	-1517.28	 1698.67
     59.0410	 2300.00	 2264.96	-1504.17	 1697.85
     59.0670	 2283.00	 2263.89	-1520.10	 1697.03
     59.0930	 2277.00	 2262.86	-1525.08	 1696.21
     59.1190	 2249.00	 2261.88	-1552.09	 1695.39
     59.1450	 2235.00	 2260.93	-1565.14	 1694.57
     59.1710	 2137.00	 2260.02	-1662.23	 1693.74
     59.1970	 2176.00	 2259.15	-1622.36	 1692.92
     59.2230	 2277.00	 2258.32	-1520.53	 1692.09
     59.2490	 2281.00	 2257.52	-1515.73	 1691.26
     59.2750	 2222.00	 2256.76	-1573.98	 1690.43
     59.3010	 2194.00	 2256.04	-1601.26	 1689.60
     59.3270	 2181.00	 2255.36	-1613.57	 1688.77
     59.3530	 2253.00	 2254.71	-1540.93	 1687.94
     59.3790	 2324.00	 2254.11	-1469.32	 1687.10
     59.4050	 2175.00	 2253.53	-1617.75	 1686.27
     59.4310	 2241.00	 2253.00	-1551.21	 1685.43
     59.4570	 2188.00	 2252.50	-1603.71	 1684.60
     59.4830	 2213.00	 2252.04	-1578.25	 1683.76
     59.5090	 2190.00	 2251.62	-1600.83	 1682.92
     59.5350	 2175.00	 2251.23	-1615.45	 1682.08
     59.5610	 2165.00	 2250.89	-1625.10	 1681.24
     59.5870	 2242.00	 2250.58	-1547.79	 1680.40
     59.6130	 2224.00	 2250.31	-1565.52	 1679.56
     59.6390	 2172.00	 2250.08	-1617.30	 1678.71
     59.6650	 2215.00	 2249.89	-1574.11	 1677.87
     59.6910	 2242.00	 2249.75	-1546.96	 1677.02
     59.7170	 2200.00	 2249.64	-1588.85	 1676.18
     59.7430	 2169.00	 2249.57	-1619.79	 1675.33
     59.7690	 2178.00	 2249.55	-1610.76	 1674.49
     59.7950	 2153.00	 2249.57	-1635.79	 1673.64
     59.8210	 2142.00	 2249.64	-1646.85	 1672.79
     59.8470	 2135.00	 2249.75	-1653.96	 1671.94
     59.8730	 2097.00	 2249.91	-1692.12	 1671.10
     59.8990	 2144.00	 2250.11	-1645.33	 1670.25
     59.9250	 2126.00	 2250.37	-1663.58	 1669.40
     59.9510	 2186.00	 2250.67	-1603.89	 1668.55
     59.9770	 2117.00	 2251.03	-1673.24	 1667.70
     60.0030	 2189.00	 2251.44	-1601.65	 1666.84
     60.0290	 2247.00	 2251.90	-1544.12	 1665.99
     60.0550	 2223.00	 2252.42	-1568.64	 1665.14
     60.0810	 2156.00	 2253.00	-1636.21	 1664.29
     60.1070	 2148.00	 2253.64	-1644.85	 1663.44
     60.1330	 2158.00	 2254.33	-1635.55	 1662.58
     60.1590	 2129.00	 2255.10	-1665.31	 1661.73
     60.1850	 2118.00	 2255.92	-1677.13	 1660.88
     60.2110	 2172.00	 2256.82	-1624.03	 1660.03
     60.2370	 2143.00	 2257.78	-1653.99	 1659.17
     60.2630	 2177.00	 2258.82	-1621.03	 1658.32
     60.2890	 2204.00	 2259.93	-1595.14	 1657.46
     60.3150	 2180.00	 2261.12	-1620.33	 1656.61
     60.3410	 2173.00	 2262.39	-1628.60	 1655.76
     60.3670	 2128.00	 2263.74	-1674.95	 1654.90
     60.3930	 2118.00	 2265.18	-1686.39	 1654.05
     60.4190	 2174.00	 2266.71	-1631.92	 1653.20
     60.4450	 2145.00	 2268.33	-1662.54	 1652.34
     60.4710	 2112.00	 2270.05	-1697.27	 1651.49
     60.4970	 2185.00	 2271.88	-1626.09	 1650.64
     60.5230	 2174.00	 2273.80	-1639.02	 1649.78
     60.5490	 2154.00	 2275.84	-1661.05	 1648.93
     60.5750	 2152.00	 2278.00	-1665.21	 1648.08
     60.6010	 2141.00	 2280.27	-1678.48	 1647.22
     60.6270	 2153.00	 2282.67	-1668.88	 1646.37
     60.6530	 2130.00	 2285.19	-1694.41	 1645.52
     60.6790	 2134.00	 2287.86	-1693.07	 1644.67
     60.7050	 2151.00	 2290.66	-1678.88	 1643.82
     60.7310	 2126.00	 2293.62	-1706.83	 1642.97
     60.7570	 2181.00	 2296.73	-1654.94	 1642.11
     60.7830	 2192.00	 2300.00	-1647.21	 1641.26
     60.8090	 2171.00	 2303.44	-1671.66	 1640.41
     60.8350	 2164.00	 2307.06	-1682.28	 1639.57
     60.8610	 2164.00	 2310.87	-1686.08	 1638.72
     60.8870	 2148.00	 2314.87	-1706.08	 1637.87
     60.9130	 2152.00	 2319.08	-1706.29	 1637.02
     60.9390	 2188.00	 2323.50	-1674.71	 1636.17
     60.9650	 2153.00	 2328.14	-1714.35	 1635.33
     60.9910	 2151.00	 2333.02	-1721.23	 1634.48
     61.0170	 2114.00	 2338.15	-1763.36	 1633.63
     61.0430	 2095.00	 2343.53	-1787.74	 1632.79
     61.0690	 2143.00	 2349.19	-1745.40	 1631.95
     61.0950	 2168.00	 2355.13	-1726.34	 1631.10
     61.1210	 2169.00	 2361.37	-1731.58	 1630.26
     61.1470	 2201.00	 2367.92	-1706.13	 1629.42
     61.1730	 2193.00	 2374.80	-1721.01	 1628.58
     61.1990	 2150.00	 2382.03	-1771.24	 1627.74
     61.2250	 2165.00	 2389.61	-1763.83	 1626.90
     61.2510	 2128.00	 2397.58	-1808.79	 1626.06
     61.2770	 2146.00	 2405.94	-1799.15	 1625.22
     61.3030	 2197.00	 2414.71	-1756.93	 1624.38
     61.3290	 2205.00	 2423.92	-1758.14	 1623.55
     61.3550	 2170.00	 2433.59	-1802.80	 1622.71
     61.3810	 2164.00	 2443.73	-1818.94	 1621.88
     61.4070	 2234.00	 2454.36	-1759.58	 1621.05
     61.4330	 2295.00	 2465.52	-1709.73	 1620.21
     61.4590	 2315.00	 2477.20	-1701.42	 1619.38
     61.4850	 2258.00	 2489.45	-1770.67	 1618.55
     61.5110	 2305.00	 2502.28	-1736.50	 1617.72
     61.5370	 2394.00	 2515.71	-1660.93	 1616.90
     61.5630	 2386.00	 2529.76	-1682.98	 1616.07
     61.5890	 2406.00	 2544.45	-1677.67	 1615.24
     61.6150	 2460.00	 2559.80	-1639.01	 1614.42
     61.6410	 2490.00	 2575.82	-1625.03	 1613.60
     61.6670	 2505.00	 2592.51	-1626.72	 1612.77
     61.6930	 2578.00	 2609.90	-1571.11	 1611.95
     61.7190	 2629.00	 2627.98	-1538.19	 1611.13
     61.7450	 2617.00	 2646.75	-1568.96	 1610.32
     61.7710	 2631.00	 2666.20	-1574.42	 1609.50
     61.7970	 2715.00	 2686.33	-1510.54	 1608.68
     61.8230	 2773.00	 2707.09	-1473.30	 1607.87
     61.8490	 2835.00	 2728.46	-1432.67	 1607.06
     61.8750	 2878.00	 2750.39	-1411.61	 1606.25
     61.9010	 2954.00	 2772.83	-1358.04	 1605.44
     61.9270	 2967.00	 2795.70	-1367.91	 1604.63
     61.9530	 2922.00	 2818.90	-1436.12	 1603.82
     61.9790	 3024.00	 2842.34	-1357.56	 1603.01
     62.0050	 3067.00	 2865.90	-1338.12	 1602.21
     62.0310	 3188.00	 2889.44	-1240.65	 1601.41
     62.0570	 3209.00	 2912.79	-1243.01	 1600.61
     62.0830	 3202.00	 2935.79	-1273.00	 1599.81
     62.1090	 3275.00	 2958.25	-1222.46	 1599.01
     62.1350	 3311.00	 2979.96	-1208.18	 1598.21
     62.1610	 3414.00	 3000.72	-1125.93	 1597.42
     62.1870	 3408.00	 3020.30	-1151.51	 1596.62
     62.2130	 3491.00	 3038.48	-1086.69	 1595.83
     62.2390	 3614.00	 3055.05	 -980.26	 1595.04
     62.2650	 3585.00	 3069.78	-1023.99	 1594.25
     62.2910	 3542.00	 3082.50	-1079.71	 1593.47
     62.3170	 3528.00	 3093.01	-1104.22	 1592.68
     62.3430	 3635.00	 3101.17	-1005.39	 1591.90
     62.3690	 3638.00	 3106.86	-1008.07	 1591.12
     62.3950	 3628.00	 3109.98	-1021.19	 1590.34
     62.4210	 3615.00	 3110.49	-1034.70	 1589.56
     62.4470	 3656.00	 3108.36	 -991.57	 1588.78
     62.4730	 3608.00	 3103.62	-1034.84	 1588.01
     62.4990	 3543.00	 3096.34	-1092.55	 1587.24
     62.5250	 3485.00	 3086.60	-1140.82	 1586.47
     62.5510	 3515.00	 3074.54	-1098.75	 1585.70
     62.5770	 3455.00	 3060.31	-1144.52	 1584.93
     62.6030	 3441.00	 3044.08	-1142.29	 1584.17
     62.6290	 3248.00	 3026.05	-1317.26	 1583.40
     62.6550	 3177.00	 3006.43	-1368.64	 1582.64
     62.6810	 3172.00	 2985.43	-1352.64	 1581.88
     62.7070	 3129.00	 2963.26	-1373.47	 1581.12
     62.7330	 2992.00	 2940.14	-1487.36	 1580.37
     62.7590	 3003.00	 2916.28	-1452.49	 1579.62
     62.7850	 2998.00	 2891.87	-1433.08	 1578.86
     62.8110	 2856.00	 2867.09	-1550.30	 1578.11
     62.8370	 2803.00	 2842.11	-1578.33	 1577.37
     62.8630	 2722.00	 2817.10	-1634.31	 1576.62
     62.8890	 2695.00	 2792.18	-1636.39	 1575.88
     62.9150	 2654.00	 2767.48	-1652.69	 1575.14
     62.9410	 2638.00	 2743.10	-1644.31	 1574.40
     62.9670	 2578.00	 2719.13	-1680.34	 1573.66
     62.9930	 2412.00	 2695.64	-1822.86	 1572.93
     63.0190	 2438.00	 2672.70	-1773.91	 1572.19
     63.0450	 2445.00	 2650.35	-1744.56	 1571.46
     63.0710	 2387.00	 2628.63	-1780.84	 1570.73
     63.0970	 2408.00	 2607.56	-1738.77	 1570.01
     63.1230	 2397.00	 2587.17	-1729.38	 1569.28
     63.1490	 2335.00	 2567.46	-1771.67	 1568.56
     63.1750	 2295.00	 2548.43	-1792.64	 1567.84
     63.2010	 2232.00	 2530.09	-1837.30	 1567.12
     63.2270	 2309.00	 2512.42	-1742.64	 1566.41
     63.2530	 2271.00	 2495.42	-1763.64	 1565.69
     63.2790	 2277.00	 2479.08	-1741.29	 1564.98
     63.3050	 2298.00	 2463.37	-1704.59	 1564.27
     63.3310	 2301.00	 2448.28	-1686.50	 1563.57
     63.3570	 2315.00	 2433.80	-1658.01	 1562.86
     63.3830	 2273.00	 2419.89	-1686.10	 1562.16
     63.4090	 2264.00	 2406.55	-1681.76	 1561.46
     63.4350	 2231.00	 2393.74	-1701.95	 1560.76
     63.4610	 2275.00	 2381.45	-1645.66	 1560.07
     63.4870	 2276.00	 2369.66	-1632.87	 1559.37
     63.5130	 2237.00	 2358.35	-1660.56	 1558.68
     63.5390	 2269.00	 2347.49	-1617.70	 1558.00
     63.5650	 2259.00	 2337.07	-1617.28	 1557.31
     63.5910	 2256.00	 2327.06	-1610.28	 1556.63
     63.6170	 2291.00	 2317.46	-1565.67	 1555.94
     63.6430	 2293.00	 2308.23	-1554.44	 1555.26
     63.6690	 2222.00	 2299.37	-1616.58	 1554.59
     63.6950	 2215.00	 2290.86	-1615.07	 1553.91
     63.7210	 2264.00	 2282.67	-1557.88	 1553.24
     63.7470	 2235.00	 2274.80	-1579.01	 1552.57
     63.7730	 2165.00	 2267.23	-1641.44	 1551.91
     63.7990	 2105.00	 2259.95	-1694.16	 1551.24
     63.8250	 2136.00	 2252.94	-1656.15	 1550.58
     63.8510	 2210.00	 2246.19	-1575.40	 1549.92
     63.8770	 2201.00	 2239.69	-1577.90	 1549.26
     63.9030	 2164.00	 2233.43	-1608.64	 1548.61
     63.9290	 2131.00	 2227.39	-1635.60	 1547.95
     63.9550	 2125.00	 2221.57	-1635.78	 1547.30
     63.9810	 2145.00	 2215.95	-1610.17	 1546.66
     64.0070	 2184.00	 2210.53	-1565.75	 1546.01
     64.0330	 2228.00	 2205.30	-1516.52	 1545.37
     64.0590	 2218.00	 2200.25	-1521.46	 1544.73
     64.0850	 2228.00	 2195.37	-1506.58	 1544.09
     64.1110	 2252.00	 2190.65	-1477.86	 1543.45
     64.1370	 2165.00	 2186.09	-1560.30	 1542.82
     64.1630	 2115.00	 2181.68	-1605.89	 1542.19
     64.1890	 2176.00	 2177.41	-1540.62	 1541.56
     64.2150	 2184.00	 2173.28	-1528.49	 1540.94
     64.2410	 2190.00	 2169.28	-1518.49	 1540.31
     64.2670	 2159.00	 2165.41	-1545.62	 1539.69
     64.2930	 2147.00	 2161.65	-1553.86	 1539.07
     64.3190	 2181.00	 2158.01	-1516.22	 1538.46
     64.3450	 2131.00	 2154.48	-1562.70	 1537.84
     64.3710	 2142.00	 2151.06	-1548.28	 1537.23
     64.3970	 2131.00	 2147.74	-1555.96	 1536.63
     64.4230	 2137.00	 2144.52	-1546.73	 1536.02
     64.4490	 2152.00	 2141.40	-1528.61	 1535.42
     64.4750	 2116.00	 2138.36	-1561.57	 1534.82
     64.5010	 2097.00	 2135.41	-1577.62	 1534.22
     64.5270	 2160.00	 2132.55	-1511.76	 1533.62
     64.5530	 2178.00	 2129.76	-1490.98	 1533.03
     64.5790	 2139.00	 2127.06	-1527.27	 1532.44
     64.6050	 2180.00	 2124.43	-1483.64	 1531.85
     64.6310	 2183.00	 2121.87	-1478.08	 1531.26
     64.6570	 2137.00	 2119.38	-1521.60	 1530.68
     64.6830	 2130.00	 2116.96	-1526.18	 1530.10
     64.7090	 2088.00	 2114.61	-1565.82	 1529.52
     64.7350	 2094.00	 2112.32	-1557.53	 1528.95
     64.7610	 2130.00	 2110.09	-1519.30	 1528.37
     64.7870	 2066.00	 2107.92	-1581.13	 1527.80
     64.8130	 2131.00	 2105.81	-1514.02	 1527.23
     64.8390	 2100.00	 2103.75	-1542.96	 1526.67
     64.8650	 2050.00	 2101.75	-1590.96	 1526.10
     64.8910	 2070.00	 2099.80	-1569.01	 1525.54
     64.9170	 2092.00	 2097.90	-1545.11	 1524.99
     64.9430	 2041.00	 2096.05	-1594.26	 1524.43
     64.9690	 2099.00	 2094.24	-1534.46	 1523.88
     64.9950	 2081.00	 2092.49	-1550.70	 1523.33
     65.0210	 2006.00	 2090.78	-1623.99	 1522.78
     65.0470	 2015.00	 2089.11	-1613.32	 1522.23
     65.0730	 2072.00	 2087.48	-1554.70	 1521.69
     65.0990	 2056.00	 2085.90	-1569.11	 1521.15
     65.1250	 2024.00	 2084.35	-1599.57	 1520.61
     65.1510	 2077.00	 2082.85	-1545.06	 1520.07
     65.1770	 2039.00	 2081.38	-1581.59	 1519.54
     65.2030	 2092.00	 2079.94	-1527.15	 1519.01
     65.2290	 1991.00	 2078.54	-1626.75	 1518.48
     65.2550	 2017.00	 2077.17	-1599.38	 1517.95
     65.2810	 2081.00	 2075.83	-1534.04	 1517.43
     65.3070	 2094.00	 2074.52	-1519.74	 1516.91
     65.3330	 2063.00	 2073.24	-1549.45	 1516.39
     65.3590	 2019.00	 2071.99	-1592.20	 1515.87
     65.3850	 1986.00	 2070.76	-1623.97	 1515.36
     65.4110	 2054.00	 2069.55	-1554.76	 1514.85
     65.4370	 2121.00	 2068.36	-1486.57	 1514.34
     65.4630	 2136.00	 2067.20	-1470.41	 1513.83
     65.4890	 2069.00	 2066.05	-1536.26	 1513.33
     65.5150	 2060.00	 2064.92	-1544.13	 1512.83
     65.5410	 2068.00	 2063.81	-1535.02	 1512.33
     65.5670	 2081.00	 2062.71	-1520.92	 1511.83
     65.5930	 2062.00	 2061.62	-1538.84	 1511.33
     65.6190	 2131.00	 2060.55	-1468.76	 1510.84
     65.6450	 2017.00	 2059.49	-1581.71	 1510.35
     65.6710	 2088.00	 2058.45	-1509.66	 1509.86
     65.6970	 1983.00	 2057.42	-1613.63	 1509.38
     65.7230	 1967.00	 2056.40	-1628.61	 1508.90
     65.7490	 2004.00	 2055.39	-1590.60	 1508.41
     65.7750	 2035.00	 2054.39	-1558.61	 1507.94
     65.8010	 2019.00	 2053.41	-1573.63	 1507.46
     65.8270	 2017.00	 2052.45	-1574.66	 1506.99
     65.8530	 2026.00	 2051.49	-1564.70	 1506.51
     65.8790	 2047.00	 2050.55	-1542.77	 1506.05
     65.9050	 2023.00	 2049.63	-1565.84	 1505.58
     65.9310	 1956.00	 2048.72	-1631.94	 1505.11
     65.9570	 2011.00	 2047.83	-1576.05	 1504.65
     65.9830	 2028.00	 2046.96	-1558.17	 1504.19
     66.0090	 2008.00	 2046.11	-1577.32	 1503.73
     66.0350	 1945.00	 2045.27	-1639.48	 1503.28
     66.0610	 2032.00	 2044.45	-1551.67	 1502.82
     66.0870	 2017.00	 2043.66	-1565.87	 1502.37
     66.1130	 2054.00	 2042.88	-1528.09	 1501.92
     66.1390	 2038.00	 2042.11	-1543.33	 1501.48
     66.1650	 2101.00	 2041.37	-1479.58	 1501.03
     66.1910	 2100.00	 2040.65	-1479.86	 1500.59
     66.2170	 2038.00	 2039.94	-1541.15	 1500.15
     66.2430	 2085.00	 2039.25	-1493.46	 1499.71
     66.2690	 2094.00	 2038.57	-1483.78	 1499.28
     66.2950	 2086.00	 2037.91	-1491.12	 1498.84
     66.3210	 2032.00	 2037.26	-1544.47	 1498.41
     66.3470	 2039.00	 2036.62	-1536.83	 1497.98
     66.3730	 2072.00	 2035.99	-1503.20	 1497.55
     66.3990	 2115.00	 2035.37	-1459.58	 1497.13
     66.4250	 2097.00	 2034.75	-1476.96	 1496.71
     66.4510	 2064.00	 2034.14	-1509.35	 1496.28
     66.4770	 2073.00	 2033.53	-1499.74	 1495.86
     66.5030	 2049.00	 2032.91	-1523.13	 1495.45
     66.5290	 2028.00	 2032.30	-1543.51	 1495.03
     66.5550	 2059.00	 2031.68	-1511.89	 1494.62
     66.5810	 2080.00	 2031.05	-1490.27	 1494.21
     66.6070	 2068.00	 2030.42	-1501.63	 1493.80
     66.6330	 2060.00	 2029.78	-1508.99	 1493.39
     66.6590	 2050.00	 2029.12	-1518.33	 1492.99
     66.6850	 2081.00	 2028.46	-1486.67	 1492.58
     66.7110	 2099.00	 2027.78	-1467.99	 1492.18
     66.7370	 2065.00	 2027.09	-1501.31	 1491.78
     66.7630	 2094.00	 2026.39	-1471.61	 1491.39
     66.7890	 2114.00	 2025.68	-1450.90	 1490.99
     66.8150	 2107.00	 2024.96	-1457.17	 1490.60
     66.8410	 2129.00	 2024.23	-1434.44	 1490.21
     66.8670	 2109.00	 2023.49	-1453.71	 1489.82
     66.8930	 2047.00	 2022.75	-1514.96	 1489.43
     66.9190	 2075.00	 2022.00	-1486.21	 1489.04
     66.9450	 2089.00	 2021.24	-1471.46	 1488.66
     66.9710	 2106.00	 2020.49	-1453.70	 1488.28
     66.9970	 2075.00	 2019.73	-1483.94	 1487.90
     67.0230	 2105.00	 2018.97	-1453.19	 1487.52
     67.0490	 2056.00	 2018.22	-1501.43	 1487.14
     67.0750	 2028.00	 2017.47	-1528.68	 1486.76
     67.1010	 2078.00	 2016.73	-1477.94	 1486.39
     67.1270	 2059.00	 2015.99	-1496.20	 1486.02
     67.1530	 2039.00	 2015.26	-1515.47	 1485.65
     67.1790	 2053.00	 2014.54	-1500.75	 1485.28
     67.2050	 2043.00	 2013.83	-1510.04	 1484.91
     67.2310	 2039.00	 2013.13	-1513.34	 1484.55
     67.2570	 2024.00	 2012.44	-1527.66	 1484.19
     67.2830	 2080.00	 2011.77	-1470.98	 1483.82
     67.3090	 2055.00	 2011.11	-1495.32	 1483.46
     67.3350	 2038.00	 2010.45	-1511.67	 1483.11
     67.3610	 2009.00	 2009.82	-1540.03	 1482.75
     67.3870	 2089.00	 2009.19	-1459.40	 1482.39
     67.4130	 2168.00	 2008.58	-1379.79	 1482.04
     67.4390	 2073.00	 2007.98	-1474.19	 1481.69
     67.4650	 2082.00	 2007.40	-1464.61	 1481.34
     67.4910	 2150.00	 2006.82	-1396.04	 1480.99
     67.5170	 2067.00	 2006.26	-1478.48	 1480.64
     67.5430	 2002.00	 2005.72	-1542.93	 1480.30
     67.5690	 2064.00	 2005.18	-1480.40	 1479.95
     67.5950	 2069.00	 2004.66	-1474.88	 1479.61
     67.6210	 2032.00	 2004.16	-1511.37	 1479.27
     67.6470	 2070.00	 2003.66	-1472.87	 1478.93
     67.6730	 2074.00	 2003.17	-1468.39	 1478.59
     67.6990	 2022.00	 2002.70	-1519.92	 1478.25
     67.7250	 1967.00	 2002.24	-1574.45	 1477.92
     67.7510	 2068.00	 2001.79	-1473.01	 1477.58
     67.7770	 2038.00	 2001.36	-1502.57	 1477.25
     67.8030	 2140.00	 2000.93	-1400.14	 1476.92
     67.8290	 2171.00	 2000.51	-1368.73	 1476.59
     67.8550	 2040.00	 2000.11	-1499.32	 1476.26
     67.8810	 2080.00	 1999.71	-1458.93	 1475.93
     67.9070	 2157.00	 1999.33	-1381.54	 1475.60
     67.9330	 2084.00	 1998.96	-1454.17	 1475.28
     67.9590	 2123.00	 1998.59	-1414.81	 1474.95
     67.9850	 2014.00	 1998.24	-1523.45	 1474.63
     68.0110	 2036.00	 1997.90	-1501.11	 1474.31
     68.0370	 2065.00	 1997.56	-1471.78	 1473.99
     68.0630	 1999.00	 1997.24	-1537.45	 1473.67
     68.0890	 2019.00	 1996.93	-1517.14	 1473.35
     68.1150	 2060.00	 1996.62	-1475.84	 1473.04
     68.1410	 2082.00	 1996.33	-1453.54	 1472.72
     68.1670	 2091.00	 1996.04	-1444.26	 1472.41
     68.1930	 2156.00	 1995.77	-1378.98	 1472.10
     68.2190	 2100.00	 1995.50	-1434.72	 1471.78
     68.2450	 2073.00	 1995.25	-1461.46	 1471.47
     68.2710	 2083.00	 1995.00	-1451.21	 1471.16
     68.2970	 2075.00	 1994.76	-1458.97	 1470.85
     68.3230	 2053.00	 1994.54	-1480.75	 1470.55
     68.3490	 2047.00	 1994.32	-1486.53	 1470.24
     68.3750	 2137.00	 1994.11	-1396.32	 1469.94
     68.4010	 2112.00	 1993.91	-1421.12	 1469.63
     68.4270	 2051.00	 1993.72	-1481.93	 1469.33
     68.4530	 2101.00	 1993.54	-1431.75	 1469.02
     68.4790	 2071.00	 1993.37	-1461.59	 1468.72
     68.5050	 2040.00	 1993.21	-1492.43	 1468.42
     68.5310	 2035.00	 1993.07	-1497.28	 1468.12
     68.5570	 2075.00	 1992.93	-1457.14	 1467.82
     68.5830	 2082.00	 1992.80	-1450.01	 1467.53
     68.6090	 2080.00	 1992.68	-1451.89	 1467.23
     68.6350	 2089.00	 1992.57	-1442.79	 1466.93
     68.6610	 2071.00	 1992.48	-1460.69	 1466.64
     68.6870	 2028.00	 1992.39	-1503.61	 1466.34
     68.7130	 2052.00	 1992.32	-1479.53	 1466.05
     68.7390	 2064.00	 1992.26	-1467.47	 1465.76
     68.7650	 2064.00	 1992.21	-1467.42	 1465.47
     68.7910	 2107.00	 1992.17	-1424.38	 1465.18
     68.8170	 2001.00	 1992.15	-1530.36	 1464.89
     68.8430	 2045.00	 1992.13	-1486.35	 1464.60
     68.8690	 2085.00	 1992.14	-1446.35	 1464.31
     68.8950	 2012.00	 1992.15	-1519.36	 1464.02
     68.9210	 2028.00	 1992.18	-1503.39	 1463.73
     68.9470	 2104.00	 1992.22	-1427.43	 1463.45
     68.9730	 2111.00	 1992.28	-1420.49	 1463.16
     68.9990	 2075.00	 1992.35	-1456.56	 1462.88
     69.0250	 2031.00	 1992.43	-1500.65	 1462.59
     69.0510	 2028.00	 1992.54	-1503.75	 1462.31
     69.0770	 2093.00	 1992.66	-1438.87	 1462.02
     69.1030	 2111.00	 1992.79	-1421.01	 1461.74
     69.1290	 2096.00	 1992.95	-1436.16	 1461.46
     69.1550	 2122.00	 1993.12	-1410.33	 1461.18
     69.1810	 2113.00	 1993.31	-1419.53	 1460.90
     69.2070	 2083.00	 1993.53	-1449.74	 1460.62
     69.2330	 2121.00	 1993.76	-1411.97	 1460.34
     69.2590	 2079.00	 1994.01	-1454.22	 1460.06
     69.2850	 2010.00	 1994.28	-1523.50	 1459.78
     69.3110	 2033.00	 1994.58	-1500.79	 1459.50
     69.3370	 2040.00	 1994.90	-1494.12	 1459.23
     69.3630	 2027.00	 1995.25	-1507.46	 1458.95
     69.3890	 2046.00	 1995.62	-1488.83	 1458.67
     69.4150	 2104.00	 1996.02	-1431.23	 1458.40
     69.4410	 2079.00	 1996.44	-1456.66	 1458.12
     69.4670	 2067.00	 1996.90	-1469.11	 1457.85
     69.4930	 2077.00	 1997.38	-1459.59	 1457.57
     69.5190	 2093.00	 1997.90	-1444.11	 1457.30
     69.5450	 2114.00	 1998.45	-1423.66	 1457.03
     69.5710	 2077.00	 1999.03	-1461.24	 1456.76
     69.5970	 2067.00	 1999.65	-1471.86	 1456.48
     69.6230	 2148.00	 2000.30	-1391.51	 1456.21
     69.6490	 2026.00	 2000.99	-1514.20	 1455.94
     69.6750	 2018.00	 2001.72	-1522.94	 1455.67
     69.7010	 2081.00	 2002.50	-1460.71	 1455.40
     69.7270	 2053.00	 2003.32	-1489.53	 1455.13
     69.7530	 2019.00	 2004.18	-1524.39	 1454.86
     69.7790	 2015.00	 2005.09	-1529.30	 1454.59
     69.8050	 2046.00	 2006.04	-1499.25	 1454.32
     69.8310	 2127.00	 2007.05	-1419.26	 1454.05
     69.8570	 2083.00	 2008.11	-1464.32	 1453.78
     69.8830	 2047.00	 2009.22	-1501.43	 1453.51
     69.9090	 2067.00	 2010.39	-1482.60	 1453.24
     69.9350	 2065.00	 2011.61	-1485.82	 1452.98
     69.9610	 2039.00	 2012.89	-1513.11	 1452.71
     69.9870	 2065.00	 2014.24	-1488.45	 1452.44
     70.0130	 2062.00	 2015.64	-1492.85	 1452.17
     70.0390	 2059.00	 2017.10	-1497.32	 1451.91
     70.0650	 2058.00	 2018.63	-1499.85	 1451.64
     70.0910	 2041.00	 2020.22	-1518.44	 1451.38
     70.1170	 2023.00	 2021.88	-1538.09	 1451.11
     70.1430	 2075.00	 2023.59	-1487.81	 1450.84
     70.1690	 2133.00	 2025.37	-1431.58	 1450.58
     70.1950	 2080.00	 2027.21	-1486.42	 1450.31
     70.2210	 2096.00	 2029.10	-1472.32	 1450.05
     70.2470	 2086.00	 2031.05	-1484.27	 1449.78
     70.2730	 2082.00	 2033.05	-1490.27	 1449.52
     70.2990	 2126.00	 2035.10	-1448.31	 1449.26
     70.3250	 2139.00	 2037.18	-1437.39	 1448.99
     70.3510	 2148.00	 2039.29	-1430.50	 1448.73
     70.3770	 2012.00	 2041.43	-1568.64	 1448.47
     70.4030	 2021.00	 2043.57	-1561.78	 1448.20
     70.4290	 2140.00	 2045.72	-1444.93	 1447.94
     70.4550	 2044.00	 2047.86	-1543.07	 1447.68
     70.4810	 2044.00	 2049.96	-1545.18	 1447.41
     70.5070	 2133.00	 2052.03	-1458.24	 1447.15
     70.5330	 2112.00	 2054.04	-1481.25	 1446.89
     70.5590	 2089.00	 2055.98	-1506.19	 1446.63
     70.5850	 2020.00	 2057.82	-1577.03	 1446.36
     70.6110	 2037.00	 2059.56	-1561.77	 1446.10
     70.6370	 2025.00	 2061.16	-1575.38	 1445.84
     70.6630	 1992.00	 2062.63	-1609.84	 1445.58
     70.6890	 2030.00	 2063.93	-1573.15	 1445.32
     70.7150	 2082.00	 2065.07	-1522.28	 1445.05
     70.7410	 2111.00	 2066.01	-1494.22	 1444.79
     70.7670	 2032.00	 2066.76	-1573.97	 1444.53
     70.7930	 2057.00	 2067.30	-1549.51	 1444.27
     70.8190	 2064.00	 2067.63	-1542.84	 1444.01
     70.8450	 2088.00	 2067.75	-1518.96	 1443.75
     70.8710	 2049.00	 2067.65	-1557.86	 1443.49
     70.8970	 1986.00	 2067.34	-1620.55	 1443.23
     70.9230	 2085.00	 2066.82	-1521.03	 1442.97
     70.9490	 2043.00	 2066.10	-1562.31	 1442.71
     70.9750	 2120.00	 2065.20	-1484.41	 1442.45
     71.0010	 2091.00	 2064.12	-1512.33	 1442.19
     71.0270	 2082.00	 2062.87	-1520.09	 1441.93
     71.0530	 2044.00	 2061.48	-1556.70	 1441.67
     71.0790	 2102.00	 2059.96	-1497.18	 1441.41
     71.1050	 2066.00	 2058.33	-1531.54	 1441.15
     71.1310	 2068.00	 2056.60	-1527.81	 1440.89
     71.1570	 2053.00	 2054.79	-1541.01	 1440.63
     71.1830	 2035.00	 2052.92	-1557.13	 1440.37
     71.2090	 2117.00	 2051.00	-1473.22	 1440.11
     71.2350	 2075.00	 2049.06	-1513.27	 1439.86
     71.2610	 2030.00	 2047.10	-1556.31	 1439.60
     71.2870	 2047.00	 2045.13	-1537.34	 1439.34
     71.3130	 2037.00	 2043.17	-1545.39	 1439.08
     71.3390	 2038.00	 2041.24	-1542.45	 1438.82
     71.3650	 2058.00	 2039.34	-1520.55	 1438.57
     71.3910	 1952.00	 2037.48	-1624.69	 1438.31
     71.4170	 1963.00	 2035.66	-1611.87	 1438.05
     71.4430	 2039.00	 2033.90	-1534.11	 1437.79
     71.4690	 2042.00	 2032.20	-1529.41	 1437.54
     71.4950	 2000.00	 2030.56	-1569.77	 1437.28
     71.5210	 2078.00	 2028.99	-1490.20	 1437.02
     71.5470	 2048.00	 2027.49	-1518.70	 1436.77
     71.5730	 1966.00	 2026.06	-1599.27	 1436.51
     71.5990	 2004.00	 2024.71	-1559.92	 1436.25
     71.6250	 2054.00	 2023.43	-1508.64	 1436.00
     71.6510	 2065.00	 2022.22	-1496.44	 1435.74
     71.6770	 2085.00	 2021.10	-1475.31	 1435.49
     71.7030	 2101.00	 2020.05	-1458.26	 1435.23
     71.7290	 2082.00	 2019.07	-1476.29	 1434.98
     71.7550	 2076.00	 2018.17	-1481.39	 1434.72
     71.7810	 2016.00	 2017.35	-1540.56	 1434.47
     71.8070	 1975.00	 2016.60	-1580.81	 1434.21
     71.8330	 1974.00	 2015.93	-1581.14	 1433.96
     71.8590	 1977.00	 2015.32	-1577.54	 1433.70
     71.8850	 1982.00	 2014.79	-1572.01	 1433.45
     71.9110	 1975.00	 2014.34	-1578.55	 1433.20
     71.9370	 2030.00	 2013.95	-1523.16	 1432.94
     71.9630	 2007.00	 2013.63	-1545.84	 1432.69
     71.9890	 1953.00	 2013.38	-1599.60	 1432.44
     72.0150	 1987.00	 2013.21	-1565.42	 1432.19
     72.0410	 2014.00	 2013.10	-1538.31	 1431.93
     72.0670	 2033.00	 2013.05	-1519.27	 1431.68
     72.0930	 2002.00	 2013.08	-1550.29	 1431.43
     72.1190	 2019.00	 2013.18	-1533.39	 1431.18
     72.1450	 2005.00	 2013.34	-1547.55	 1430.93
     72.1710	 1987.00	 2013.57	-1565.78	 1430.68
     72.1970	 2077.00	 2013.87	-1476.09	 1430.43
     72.2230	 2051.00	 2014.24	-1502.46	 1430.18
     72.2490	 1988.00	 2014.68	-1565.89	 1429.93
     72.2750	 1982.00	 2015.19	-1572.40	 1429.68
     72.3010	 1969.00	 2015.77	-1585.99	 1429.43
     72.3270	 1964.00	 2016.43	-1591.64	 1429.19
     72.3530	 1961.00	 2017.15	-1595.37	 1428.94
     72.3790	 2006.00	 2017.95	-1551.17	 1428.69
     72.4050	 1974.00	 2018.83	-1584.04	 1428.45
     72.4310	 2001.00	 2019.79	-1558.00	 1428.20
     72.4570	 1983.00	 2020.82	-1577.03	 1427.95
     72.4830	 2025.00	 2021.94	-1536.15	 1427.71
     72.5090	 2019.00	 2023.14	-1543.35	 1427.46
     72.5350	 2071.00	 2024.42	-1492.63	 1427.22
     72.5610	 1977.00	 2025.79	-1588.01	 1426.98
     72.5870	 2028.00	 2027.26	-1538.47	 1426.73
     72.6130	 1973.00	 2028.81	-1595.02	 1426.49
     72.6390	 1918.00	 2030.46	-1651.68	 1426.25
     72.6650	 1965.00	 2032.21	-1606.43	 1426.01
     72.6910	 1989.00	 2034.07	-1584.28	 1425.77
     72.7170	 1962.00	 2036.02	-1613.24	 1425.53
     72.7430	 2034.00	 2038.09	-1543.30	 1425.29
     72.7690	 1965.00	 2040.27	-1614.48	 1425.05
     72.7950	 1961.00	 2042.56	-1620.78	 1424.81
     72.8210	 2001.00	 2044.98	-1583.19	 1424.57
     72.8470	 2022.00	 2047.52	-1564.73	 1424.34
     72.8730	 1987.00	 2050.18	-1602.39	 1424.10
     72.8990	 1956.00	 2052.98	-1636.19	 1423.86
     72.9250	 2028.00	 2055.91	-1567.12	 1423.63
     72.9510	 1985.00	 2058.98	-1613.19	 1423.39
     72.9770	 1988.00	 2062.19	-1613.40	 1423.16
     73.0030	 2013.00	 2065.55	-1591.76	 1422.93
     73.0290	 1994.00	 2069.05	-1614.26	 1422.70
     73.0550	 1929.00	 2072.71	-1682.92	 1422.47
     73.0810	 2000.00	 2076.52	-1615.73	 1422.23
     73.1070	 2050.00	 2080.49	-1569.70	 1422.01
     73.1330	 2069.00	 2084.61	-1554.83	 1421.78
     73.1590	 1995.00	 2088.89	-1633.11	 1421.55
     73.1850	 1946.00	 2093.33	-1686.54	 1421.32
     73.2110	 2059.00	 2097.92	-1578.13	 1421.09
     73.2370	 2075.00	 2102.66	-1566.87	 1420.87
     73.2630	 2007.00	 2107.55	-1639.76	 1420.64
     73.2890	 2018.00	 2112.57	-1633.79	 1420.42
     73.3150	 1974.00	 2117.73	-1682.94	 1420.20
     73.3410	 2042.00	 2123.01	-1620.22	 1419.98
     73.3670	 2013.00	 2128.40	-1654.61	 1419.75
     73.3930	 2013.00	 2133.88	-1660.09	 1419.53
     73.4190	 1990.00	 2139.43	-1688.64	 1419.32
     73.4450	 2029.00	 2145.04	-1655.25	 1419.10
     73.4710	 2013.00	 2150.69	-1676.90	 1418.88
     73.4970	 2039.00	 2156.34	-1656.55	 1418.66
     73.5230	 2051.00	 2161.97	-1650.18	 1418.45
     73.5490	 2018.00	 2167.56	-1688.77	 1418.23
     73.5750	 1951.00	 2173.06	-1761.28	 1418.02
     73.6010	 2033.00	 2178.46	-1684.67	 1417.81
     73.6270	 1987.00	 2183.71	-1735.92	 1417.60
     73.6530	 2059.00	 2188.78	-1669.00	 1417.39
     73.6790	 2010.00	 2193.65	-1722.86	 1417.18
     73.7050	 2079.00	 2198.27	-1658.49	 1416.97
     73.7310	 2003.00	 2202.63	-1738.84	 1416.76
     73.7570	 2013.00	 2206.70	-1732.91	 1416.56
     73.7830	 2041.00	 2210.44	-1708.66	 1416.35
     73.8090	 2010.00	 2213.86	-1743.07	 1416.15
     73.8350	 2073.00	 2216.93	-1683.14	 1415.95
     73.8610	 2081.00	 2219.64	-1677.85	 1415.75
     73.8870	 2103.00	 2222.00	-1658.21	 1415.55
     73.9130	 2043.00	 2224.00	-1720.22	 1415.35
     73.9390	 2030.00	 2225.66	-1734.88	 1415.15
     73.9650	 2085.00	 2226.99	-1681.21	 1414.95
     73.9910	 2154.00	 2228.01	-1613.22	 1414.76
     74.0170	 2090.00	 2228.74	-1677.95	 1414.56
     74.0430	 2107.00	 2229.20	-1661.41	 1414.37
     74.0690	 2091.00	 2229.43	-1677.64	 1414.18
     74.0950	 2072.00	 2229.45	-1696.66	 1413.99
     74.1210	 2046.00	 2229.30	-1722.51	 1413.80
     74.1470	 2103.00	 2229.01	-1665.22	 1413.61
     74.1730	 2187.00	 2228.62	-1580.83	 1413.43
     74.1990	 2176.00	 2228.15	-1591.36	 1413.24
     74.2250	 2120.00	 2227.63	-1646.84	 1413.06
     74.2510	 2129.00	 2227.10	-1637.31	 1412.87
     74.2770	 2161.00	 2226.57	-1604.78	 1412.69
     74.3030	 2223.00	 2226.07	-1542.29	 1412.51
     74.3290	 2178.00	 2225.62	-1586.83	 1412.33
     74.3550	 2114.00	 2225.22	-1650.43	 1412.16
     74.3810	 2125.00	 2224.88	-1639.10	 1411.98
     74.4070	 2182.00	 2224.62	-1581.83	 1411.80
     74.4330	 2216.00	 2224.41	-1547.63	 1411.63
     74.4590	 2239.00	 2224.27	-1524.48	 1411.46
     74.4850	 2271.00	 2224.17	-1492.39	 1411.29
     74.5110	 2229.00	 2224.11	-1534.32	 1411.12
     74.5370	 2170.00	 2224.06	-1593.27	 1410.95
     74.5630	 2154.00	 2224.00	-1609.21	 1410.78
     74.5890	 2179.00	 2223.90	-1584.12	 1410.62
     74.6150	 2181.00	 2223.74	-1581.96	 1410.45
     74.6410	 2172.00	 2223.49	-1590.70	 1410.29
     74.6670	 2202.00	 2223.10	-1560.32	 1410.13
     74.6930	 2215.00	 2222.56	-1546.78	 1409.97
     74.7190	 2223.00	 2221.84	-1538.05	 1409.81
     74.7450	 2265.00	 2220.89	-1495.10	 1409.65
     74.7710	 2261.00	 2219.70	-1497.91	 1409.50
     74.7970	 2262.00	 2218.25	-1495.46	 1409.34
     74.8230	 2207.00	 2216.51	-1548.72	 1409.19
     74.8490	 2127.00	 2214.46	-1626.67	 1409.03
     74.8750	 2140.00	 2212.11	-1611.32	 1408.88
     74.9010	 2185.00	 2209.43	-1563.64	 1408.73
     74.9270	 2196.00	 2206.44	-1549.65	 1408.58
     74.9530	 2208.00	 2203.12	-1534.34	 1408.44
     74.9790	 2178.00	 2199.51	-1560.72	 1408.29
     75.0050	 2234.00	 2195.59	-1500.81	 1408.15
     75.0310	 2216.00	 2191.41	-1514.62	 1408.00
     75.0570	 2184.00	 2186.96	-1542.17	 1407.86
     75.0830	 2193.00	 2182.28	-1528.49	 1407.72
     75.1090	 2140.00	 2177.39	-1576.60	 1407.58
     75.1350	 2173.00	 2172.32	-1538.53	 1407.44
     75.1610	 2140.00	 2167.09	-1566.31	 1407.30
     75.1870	 2112.00	 2161.75	-1588.96	 1407.16
     75.2130	 2145.00	 2156.30	-1550.51	 1407.03
     75.2390	 2200.00	 2150.79	-1490.00	 1406.90
     75.2650	 2140.00	 2145.23	-1544.44	 1406.76
     75.2910	 2140.00	 2139.66	-1538.87	 1406.63
     75.3170	 2088.00	 2134.09	-1585.31	 1406.50
     75.3430	 2101.00	 2128.56	-1566.77	 1406.37
     75.3690	 2090.00	 2123.07	-1572.29	 1406.24
     75.3950	 2087.00	 2117.66	-1569.87	 1406.11
     75.4210	 2092.00	 2112.33	-1559.54	 1405.98
     75.4470	 2131.00	 2107.09	-1515.31	 1405.86
     75.4730	 2056.00	 2101.97	-1585.18	 1405.73
     75.4990	 2125.00	 2096.96	-1511.18	 1405.61
     75.5250	 2082.00	 2092.09	-1549.30	 1405.48
     75.5510	 2043.00	 2087.34	-1583.55	 1405.36
     75.5770	 2101.00	 2082.74	-1520.95	 1405.24
     75.6030	 2005.00	 2078.27	-1612.48	 1405.12
     75.6290	 2065.00	 2073.95	-1548.16	 1404.99
     75.6550	 2053.00	 2069.78	-1555.99	 1404.87
     75.6810	 2017.00	 2065.74	-1587.96	 1404.75
     75.7070	 2059.00	 2061.86	-1542.07	 1404.64
     75.7330	 2066.00	 2058.11	-1531.32	 1404.52
     75.7590	 2138.00	 2054.51	-1455.72	 1404.40
     75.7850	 2072.00	 2051.04	-1518.25	 1404.28
     75.8110	 2000.00	 2047.71	-1586.92	 1404.16
     75.8370	 2126.00	 2044.51	-1457.72	 1404.05
     75.8630	 2116.00	 2041.44	-1464.65	 1403.93
     75.8890	 2159.00	 2038.49	-1418.71	 1403.81
     75.9150	 2044.00	 2035.67	-1530.88	 1403.70
     75.9410	 2044.00	 2032.96	-1528.17	 1403.58
     75.9670	 2043.00	 2030.37	-1526.58	 1403.46
     75.9930	 2052.00	 2027.88	-1515.09	 1403.35
     76.0190	 2010.00	 2025.50	-1554.71	 1403.23
     76.0450	 2040.00	 2023.22	-1522.44	 1403.12
     76.0710	 1986.00	 2021.04	-1574.26	 1403.00
     76.0970	 2048.00	 2018.96	-1510.17	 1402.88
     76.1230	 2029.00	 2016.97	-1527.18	 1402.76
     76.1490	 2113.00	 2015.06	-1441.27	 1402.65
     76.1750	 2070.00	 2013.24	-1482.45	 1402.53
     76.2010	 2031.00	 2011.50	-1519.71	 1402.41
     76.2270	 2045.00	 2009.84	-1504.05	 1402.29
     76.2530	 1968.00	 2008.25	-1579.46	 1402.17
     76.2790	 2065.00	 2006.73	-1480.95	 1402.05
     76.3050	 2002.00	 2005.29	-1542.50	 1401.93
     76.3310	 2096.00	 2003.91	-1447.12	 1401.81
     76.3570	 2089.00	 2002.60	-1452.81	 1401.68
     76.3830	 2143.00	 2001.35	-1397.56	 1401.56
     76.4090	 2091.00	 2000.16	-1448.37	 1401.43
     76.4350	 2044.00	 1999.02	-1494.24	 1401.30
     76.4610	 2054.00	 1997.95	-1483.16	 1401.18
     76.4870	 2087.00	 1996.92	-1449.13	 1401.05
     76.5130	 2042.00	 1995.95	-1493.16	 1400.91
     76.5390	 2076.00	 1995.03	-1458.24	 1400.78
     76.5650	 2025.00	 1994.16	-1508.37	 1400.65
     76.5910	 2034.00	 1993.33	-1498.55	 1400.51
     76.6170	 1997.00	 1992.56	-1534.77	 1400.37
     76.6430	 2020.00	 1991.82	-1511.03	 1400.23
     76.6690	 2083.00	 1991.13	-1447.34	 1400.09
     76.6950	 2072.00	 1990.48	-1457.69	 1399.94
     76.7210	 2045.00	 1989.87	-1484.09	 1399.79
     76.7470	 2118.00	 1989.30	-1410.52	 1399.64
     76.7730	 2072.00	 1988.78	-1455.99	 1399.49
     76.7990	 2060.00	 1988.28	-1467.50	 1399.33
     76.8250	 2060.00	 1987.83	-1467.04	 1399.17
     76.8510	 2050.00	 1987.41	-1476.62	 1399.01
     76.8770	 2062.00	 1987.03	-1464.24	 1398.84
     76.9030	 2058.00	 1986.68	-1467.89	 1398.68
     76.9290	 2061.00	 1986.37	-1464.58	 1398.50
     76.9550	 2057.00	 1986.09	-1468.30	 1398.33
     76.9810	 2083.00	 1985.85	-1442.06	 1398.15
     77.0070	 2089.00	 1985.63	-1435.85	 1397.96
     77.0330	 2020.00	 1985.45	-1504.67	 1397.77
     77.0590	 2032.00	 1985.31	-1492.52	 1397.58
     77.0850	 2075.00	 1985.19	-1449.41	 1397.39
     77.1110	 2057.00	 1985.11	-1467.32	 1397.18
     77.1370	 2076.00	 1985.06	-1448.28	 1396.98
     77.1630	 2076.00	 1985.05	-1448.26	 1396.77
     77.1890	 2050.00	 1985.06	-1474.27	 1396.55
     77.2150	 2093.00	 1985.11	-1431.32	 1396.33
     77.2410	 2102.00	 1985.19	-1422.40	 1396.10
     77.2670	 2060.00	 1985.30	-1464.51	 1395.87
     77.2930	 2071.00	 1985.44	-1453.66	 1395.63
     77.3190	 2057.00	 1985.62	-1467.84	 1395.38
     77.3450	 2036.00	 1985.83	-1489.05	 1395.13
     77.3710	 2076.00	 1986.08	-1449.29	 1394.88
     77.3970	 2074.00	 1986.36	-1451.57	 1394.61
     77.4230	 2041.00	 1986.68	-1484.89	 1394.34
     77.4490	 2038.00	 1987.03	-1488.24	 1394.06
     77.4750	 2068.00	 1987.42	-1458.63	 1393.78
     77.5010	 2070.00	 1987.84	-1457.06	 1393.49
     77.5270	 2079.00	 1988.31	-1448.52	 1393.19
     77.5530	 2059.00	 1988.81	-1469.02	 1392.88
     77.5790	 2051.00	 1989.35	-1477.57	 1392.56
     77.6050	 2046.00	 1989.94	-1483.15	 1392.24
     77.6310	 2102.00	 1990.56	-1427.78	 1391.90
     77.6570	 2042.00	 1991.23	-1488.45	 1391.56
     77.6830	 2068.00	 1991.95	-1463.16	 1391.21
     77.7090	 2049.00	 1992.70	-1482.92	 1390.85
     77.7350	 2096.00	 1993.51	-1436.72	 1390.48
     77.7610	 2065.00	 1994.36	-1468.58	 1390.10
     77.7870	 2028.00	 1995.27	-1506.48	 1389.71
     77.8130	 2006.00	 1996.22	-1529.43	 1389.30
     77.8390	 2051.00	 1997.22	-1485.43	 1388.89
     77.8650	 2053.00	 1998.28	-1484.49	 1388.47
     77.8910	 1997.00	 1999.39	-1541.60	 1388.04
     77.9170	 2022.00	 2000.55	-1517.77	 1387.59
     77.9430	 2039.00	 2001.77	-1501.99	 1387.13
     77.9690	 2097.00	 2003.05	-1445.26	 1386.66
     77.9950	 2033.00	 2004.39	-1510.60	 1386.18
     78.0210	 2124.00	 2005.78	-1420.99	 1385.69
     78.0470	 2005.00	 2007.23	-1541.44	 1385.18
     78.0730	 2041.00	 2008.73	-1506.94	 1384.66
     78.0990	 2032.00	 2010.29	-1517.51	 1384.12
     78.1250	 2038.00	 2011.91	-1513.12	 1383.57
     78.1510	 2064.00	 2013.58	-1488.79	 1383.01
     78.1770	 2036.00	 2015.30	-1518.52	 1382.43
     78.2030	 2015.00	 2017.07	-1541.29	 1381.84
     78.2290	 2078.00	 2018.89	-1480.10	 1381.23
     78.2550	 2011.00	 2020.74	-1548.95	 1380.61
     78.2810	 2065.00	 2022.63	-1496.84	 1379.97
     78.3070	 1982.00	 2024.55	-1581.76	 1379.31
     78.3330	 2115.00	 2026.48	-1450.70	 1378.63
     78.3590	 2056.00	 2028.43	-1511.64	 1377.94
     78.3850	 2075.00	 2030.38	-1494.59	 1377.23
     78.4110	 2076.00	 2032.32	-1495.53	 1376.51
     78.4370	 2160.00	 2034.24	-1413.45	 1375.76
     78.4630	 2032.00	 2036.12	-1543.33	 1375.00
     78.4890	 2056.00	 2037.95	-1521.16	 1374.22
     78.5150	 2042.00	 2039.72	-1536.93	 1373.41
     78.5410	 2049.00	 2041.41	-1531.62	 1372.59
     78.5670	 2080.00	 2043.00	-1502.21	 1371.75
     78.5930	 2017.00	 2044.48	-1566.69	 1370.88
     78.6190	 2060.00	 2045.83	-1525.04	 1370.00
     78.6450	 2073.00	 2047.03	-1513.24	 1369.09
     78.6710	 1948.00	 2048.07	-1639.29	 1368.16
     78.6970	 2051.00	 2048.94	-1537.15	 1367.21
     78.7230	 2061.00	 2049.62	-1527.83	 1366.23
     78.7490	 2048.00	 2050.10	-1541.31	 1365.23
     78.7750	 2032.00	 2050.37	-1557.58	 1364.21
     78.8010	 2050.00	 2050.42	-1539.63	 1363.16
     78.8270	 1972.00	 2050.25	-1617.46	 1362.09
     78.8530	 2049.00	 2049.86	-1540.07	 1360.99
     78.8790	 2058.00	 2049.24	-1530.45	 1359.86
     78.9050	 2090.00	 2048.40	-1497.61	 1358.71
     78.9310	 2049.00	 2047.34	-1537.55	 1357.53
     78.9570	 1999.00	 2046.06	-1586.28	 1356.33
     78.9830	 2009.00	 2044.59	-1574.80	 1355.09
     79.0090	 2063.00	 2042.92	-1519.13	 1353.83
     79.0350	 2025.00	 2041.07	-1555.28	 1352.53
     79.0610	 1996.00	 2039.05	-1582.26	 1351.21
     79.0870	 1986.00	 2036.88	-1590.09	 1349.86
     79.1130	 2075.00	 2034.57	-1498.78	 1348.47
     79.1390	 2098.00	 2032.13	-1473.35	 1347.06
     79.1650	 2001.00	 2029.59	-1567.80	 1345.61
     79.1910	 2028.00	 2026.96	-1538.17	 1344.13
     79.2170	 2020.00	 2024.24	-1543.46	 1342.61
     79.2430	 1982.00	 2021.47	-1578.68	 1341.06
     79.2690	 1988.00	 2018.64	-1569.86	 1339.48
     79.2950	 1993.00	 2015.78	-1562.00	 1337.86
     79.3210	 2025.00	 2012.90	-1527.11	 1336.21
     79.3470	 1948.00	 2010.01	-1601.22	 1334.51
     79.3730	 1929.00	 2007.11	-1617.32	 1332.79
     79.3990	 1948.00	 2004.22	-1595.43	 1331.02
     79.4250	 1908.00	 2001.35	-1632.56	 1329.21
     79.4510	 1935.00	 1998.50	-1602.72	 1327.37
     79.4770	 1974.00	 1995.69	-1560.90	 1325.48
     79.5030	 1929.00	 1992.91	-1603.12	 1323.56
     79.5290	 1919.00	 1990.17	-1610.38	 1321.59
     79.5550	 1946.00	 1987.47	-1580.69	 1319.58
     79.5810	 1901.00	 1984.83	-1623.04	 1317.53
     79.6070	 1903.00	 1982.23	-1618.44	 1315.43
     79.6330	 1917.00	 1979.66	-1601.88	 1313.29
     79.6590	 1914.00	 1977.17	-1602.39	 1311.11
     79.6850	 1968.00	 1974.74	-1545.95	 1308.87
     79.7110	 1990.00	 1972.37	-1521.58	 1306.60
     79.7370	 1938.00	 1970.04	-1571.25	 1304.27
     79.7630	 1889.00	 1967.78	-1617.99	 1301.90
     79.7890	 1920.00	 1965.57	-1584.79	 1299.47
     79.8150	 1928.00	 1963.43	-1574.64	 1297.00
     79.8410	 1892.00	 1961.35	-1608.56	 1294.47
     79.8670	 1909.00	 1959.32	-1589.53	 1291.90
