 DD67    CELL:    8.43093   8.43093   8.43093   90.0000   90.0000   90.0000   SPGR: F d -3 m               TEMP:      0.00
  1   2495     1.54056     1.54443     0.00000     0.00000     0.00000    0
    32     0     0
 2Theta	Yobs	Ycal	Yobs-Ycal	Backg	Posr	(hkl)	K
     15.0230	 2829.00	 2761.83	-1527.63	 2273.07
     15.0490	 2821.00	 2761.99	-1535.79	 2273.07
     15.0750	 2926.00	 2762.16	-1430.96	 2273.07
     15.1010	 2899.00	 2762.34	-1458.14	 2273.07
     15.1270	 2833.00	 2762.51	-1524.31	 2273.07
     15.1530	 2817.00	 2762.69	-1540.50	 2273.07
     15.1790	 2878.00	 2762.88	-1479.68	 2273.07
     15.2050	 2852.00	 2763.07	-1505.87	 2273.07
     15.2310	 2796.00	 2763.26	-1562.07	 2273.07
     15.2570	 2894.00	 2763.46	-1464.26	 2273.07
     15.2830	 2907.00	 2763.67	-1451.47	 2273.07
     15.3090	 2907.00	 2763.88	-1451.68	 2273.07
     15.3350	 2949.00	 2764.09	-1409.89	 2273.07
     15.3610	 2889.00	 2764.31	-1470.11	 2273.07
     15.3870	 2883.00	 2764.53	-1476.33	 2273.07
     15.4130	 2803.00	 2764.76	-1556.56	 2273.07
     15.4390	 2831.00	 2765.00	-1528.80	 2273.07
     15.4650	 2893.00	 2765.24	-1467.04	 2273.07
     15.4910	 2925.00	 2765.49	-1435.29	 2273.07
     15.5170	 2902.00	 2765.74	-1458.55	 2273.07
     15.5430	 2959.00	 2766.01	-1401.81	 2273.07
     15.5690	 2915.00	 2765.01	-1444.82	 2271.82
     15.5950	 2836.00	 2767.77	-1526.57	 2274.30
     15.6210	 2889.00	 2770.53	-1476.33	 2276.77
     15.6470	 2828.00	 2773.30	-1540.10	 2279.25
     15.6730	 2960.00	 2776.08	-1410.88	 2281.73
     15.6990	 2965.00	 2778.87	-1408.67	 2284.21
     15.7250	 2908.00	 2781.66	-1468.46	 2286.69
     15.7510	 2946.00	 2784.46	-1433.27	 2289.17
     15.7770	 2939.00	 2787.28	-1443.08	 2291.65
     15.8030	 2920.00	 2790.10	-1464.90	 2294.13
     15.8290	 2872.00	 2792.93	-1515.73	 2296.61
     15.8550	 2920.00	 2795.78	-1470.58	 2299.09
     15.8810	 3007.00	 2798.63	-1386.43	 2301.57
     15.9070	 2985.00	 2801.50	-1411.30	 2304.05
     15.9330	 2947.00	 2804.37	-1452.17	 2306.53
     15.9590	 2902.00	 2807.26	-1500.06	 2309.01
     15.9850	 2865.00	 2810.16	-1539.96	 2311.49
     16.0110	 2905.00	 2813.08	-1502.88	 2313.96
     16.0370	 2924.00	 2816.01	-1486.81	 2316.44
     16.0630	 2921.00	 2818.95	-1492.75	 2318.92
     16.0890	 2969.00	 2821.91	-1447.71	 2321.40
     16.1150	 2905.00	 2824.88	-1514.69	 2323.88
     16.1410	 2961.00	 2827.88	-1461.68	 2326.36
     16.1670	 2803.00	 2830.88	-1622.68	 2328.84
     16.1930	 2938.00	 2833.91	-1490.71	 2331.32
     16.2190	 2910.00	 2836.95	-1521.75	 2333.80
     16.2450	 2916.00	 2840.02	-1518.82	 2336.28
     16.2710	 2955.00	 2843.10	-1482.90	 2338.76
     16.2970	 2914.00	 2846.21	-1527.01	 2341.24
     16.3230	 2923.00	 2849.34	-1521.14	 2343.72
     16.3490	 2974.00	 2852.49	-1473.29	 2346.20
     16.3750	 2988.00	 2855.67	-1462.47	 2348.68
     16.4010	 2977.00	 2858.87	-1476.67	 2351.16
     16.4270	 3066.00	 2862.10	-1390.90	 2353.63
     16.4530	 3077.00	 2865.36	-1383.16	 2356.11
     16.4790	 2992.00	 2868.64	-1471.45	 2358.59
     16.5050	 3048.00	 2871.96	-1418.77	 2361.07
     16.5310	 2949.00	 2875.32	-1521.12	 2363.55
     16.5570	 2908.00	 2878.70	-1565.51	 2366.03
     16.5830	 2984.00	 2882.13	-1492.93	 2368.51
     16.6090	 3028.00	 2885.59	-1452.39	 2370.99
     16.6350	 3020.00	 2889.09	-1463.89	 2373.47
     16.6610	 2989.00	 2892.64	-1498.44	 2375.95
     16.6870	 2975.00	 2896.23	-1516.03	 2378.43
     16.7130	 2942.00	 2899.87	-1552.67	 2380.91
     16.7390	 2957.00	 2903.56	-1541.36	 2383.39
     16.7650	 3022.00	 2907.30	-1480.10	 2385.87
     16.7910	 3016.00	 2911.09	-1489.90	 2388.35
     16.8170	 3054.00	 2914.95	-1455.75	 2390.82
     16.8430	 3104.00	 2918.87	-1409.67	 2393.30
     16.8690	 3043.00	 2922.85	-1474.66	 2395.78
     16.8950	 3011.00	 2926.91	-1510.71	 2398.26
     16.9210	 3019.00	 2931.04	-1506.84	 2400.74
     16.9470	 3040.00	 2935.24	-1490.05	 2403.22
     16.9730	 3031.00	 2939.53	-1503.34	 2405.70
     16.9990	 2975.00	 2943.91	-1563.71	 2408.18
     17.0250	 2998.00	 2948.38	-1545.18	 2410.66
     17.0510	 3047.00	 2952.95	-1500.75	 2413.14
     17.0770	 3062.00	 2957.63	-1490.43	 2415.62
     17.1030	 3027.00	 2962.41	-1530.21	 2418.10
     17.1290	 3031.00	 2967.31	-1531.11	 2420.58
     17.1550	 3102.00	 2972.34	-1465.14	 2423.06
     17.1810	 3077.00	 2977.50	-1495.30	 2425.54
     17.2070	 3012.00	 2982.90	-1565.70	 2428.01
     17.2330	 2985.00	 2988.35	-1598.15	 2430.49
     17.2590	 3049.00	 2993.95	-1539.75	 2432.97
     17.2850	 3091.00	 2999.72	-1503.52	 2435.45
     17.3110	 3002.00	 3005.66	-1598.47	 2437.93
     17.3370	 3085.00	 3011.85	-1521.65	 2440.41
     17.3630	 3020.00	 3018.17	-1592.97	 2442.89
     17.3890	 3021.00	 3024.70	-1598.51	 2445.37
     17.4150	 3088.00	 3031.45	-1538.25	 2447.85
     17.4410	 3081.00	 3038.43	-1552.23	 2450.33
     17.4670	 3044.00	 3045.65	-1596.45	 2452.81
     17.4930	 3057.00	 3053.11	-1590.91	 2455.29
     17.5190	 3135.00	 3060.84	-1520.64	 2457.77
     17.5450	 3093.00	 3068.83	-1570.63	 2460.25
     17.5710	 3096.00	 3077.10	-1575.90	 2462.73
     17.5970	 3080.00	 3085.66	-1600.46	 2465.21
     17.6230	 3163.00	 3094.51	-1526.31	 2467.68
     17.6490	 3101.00	 3103.65	-1597.45	 2470.16
     17.6750	 3012.00	 3113.08	-1695.89	 2472.64
     17.7010	 3062.00	 3122.81	-1655.61	 2475.12
     17.7270	 3075.00	 3132.82	-1652.62	 2477.60
     17.7530	 3150.00	 3143.09	-1587.89	 2480.08
     17.7790	 3061.00	 3153.61	-1687.41	 2482.56
     17.8050	 3014.00	 3164.35	-1745.15	 2485.04
     17.8310	 3092.00	 3175.26	-1678.07	 2487.52
     17.8570	 3134.00	 3186.32	-1647.12	 2490.00
     17.8830	 3041.00	 3197.44	-1751.24	 2492.48
     17.9090	 3107.00	 3208.57	-1696.37	 2494.96
     17.9350	 3076.00	 3219.63	-1738.43	 2497.44
     17.9610	 3056.00	 3230.52	-1769.32	 2499.92
     17.9870	 3030.00	 3241.14	-1805.94	 2502.40
     18.0130	 3002.00	 3251.39	-1844.19	 2504.87
     18.0390	 3229.00	 3261.13	-1626.93	 2507.35
     18.0650	 3146.00	 3270.26	-1719.06	 2509.83
     18.0910	 3129.00	 3278.65	-1744.45	 2512.31
     18.1170	 3058.00	 3286.20	-1823.00	 2514.79
     18.1430	 3052.00	 3292.79	-1835.59	 2517.27
     18.1690	 3090.00	 3298.34	-1803.14	 2519.75
     18.1950	 3057.00	 3302.78	-1840.58	 2522.23
     18.2210	 3110.00	 3306.07	-1790.87	 2524.71
     18.2470	 3151.00	 3308.18	-1751.98	 2527.19
     18.2730	 3093.00	 3309.14	-1810.94	 2529.67
     18.2990	 3046.00	 3308.97	-1857.77	 2532.15
     18.3250	 3015.00	 3307.73	-1887.53	 2534.63
     18.3510	 3017.00	 3305.51	-1883.31	 2537.11
     18.3770	 3050.00	 3302.40	-1847.20	 2539.59
     18.4030	 3040.00	 3298.52	-1853.32	 2542.06
     18.4290	 3067.00	 3293.98	-1821.78	 2544.54
     18.4550	 3152.00	 3288.89	-1731.70	 2547.02
     18.4810	 3161.00	 3283.39	-1717.20	 2549.50
     18.5070	 3056.00	 3277.59	-1816.39	 2551.98
     18.5330	 3100.00	 3271.58	-1766.38	 2554.46
     18.5590	 3027.00	 3265.47	-1833.27	 2556.94
     18.5850	 3098.00	 3259.34	-1756.14	 2559.42
     18.6110	 3091.00	 3253.25	-1757.06	 2561.90
     18.6370	 3115.00	 3247.29	-1727.09	 2564.38
     18.6630	 3149.00	 3241.48	-1687.29	 2566.86
     18.6890	 3138.00	 3235.89	-1692.69	 2569.34
     18.7150	 3087.00	 3230.53	-1738.33	 2571.82
     18.7410	 3062.00	 3225.43	-1758.23	 2574.30
     18.7670	 3124.00	 3220.60	-1691.41	 2576.78
     18.7930	 3075.00	 3216.07	-1735.87	 2579.25
     18.8190	 3100.00	 3211.83	-1706.63	 2581.73
     18.8450	 3137.00	 3207.88	-1665.68	 2584.21
     18.8710	 3125.00	 3204.22	-1674.02	 2586.69
     18.8970	 3114.00	 3200.85	-1681.65	 2589.17
     18.9230	 3087.00	 3197.76	-1705.56	 2591.65
     18.9490	 3168.00	 3194.95	-1621.75	 2594.13
     18.9750	 3118.00	 3192.39	-1669.19	 2596.61
     19.0010	 3130.00	 3190.09	-1654.90	 2599.09
     19.0270	 3137.00	 3188.04	-1645.84	 2601.57
     19.0530	 3078.00	 3186.21	-1703.01	 2604.05
     19.0790	 3016.00	 3184.61	-1763.41	 2606.53
     19.1050	 2995.00	 3183.21	-1783.01	 2609.01
     19.1310	 3054.00	 3182.02	-1722.82	 2611.49
     19.1570	 3053.00	 3181.01	-1722.81	 2613.97
     19.1830	 3127.00	 3180.18	-1647.98	 2616.45
     19.2090	 3157.00	 3179.52	-1617.32	 2618.92
     19.2350	 3106.00	 3179.03	-1667.83	 2621.40
     19.2610	 3082.00	 3178.68	-1691.48	 2623.88
     19.2870	 3090.00	 3178.47	-1683.27	 2626.36
     19.3130	 3094.00	 3178.40	-1679.21	 2628.84
     19.3390	 3123.00	 3178.46	-1650.26	 2631.32
     19.3650	 3148.00	 3178.64	-1625.44	 2633.80
     19.3910	 3127.00	 3178.93	-1646.73	 2636.28
     19.4170	 3136.00	 3179.33	-1638.13	 2638.76
     19.4430	 3098.00	 3179.82	-1676.62	 2641.24
     19.4690	 3039.00	 3180.42	-1736.22	 2643.72
     19.4950	 3034.00	 3181.10	-1741.90	 2646.20
     19.5210	 3018.00	 3181.87	-1758.67	 2648.68
     19.5470	 3085.00	 3182.71	-1692.51	 2651.16
     19.5730	 3159.00	 3183.64	-1619.44	 2653.64
     19.5990	 3152.00	 3184.63	-1627.43	 2656.11
     19.6250	 3139.00	 3185.69	-1641.49	 2658.59
     19.6510	 3157.00	 3186.82	-1624.62	 2661.07
     19.6770	 3182.00	 3188.00	-1600.80	 2663.55
     19.7030	 3112.00	 3189.24	-1672.05	 2666.03
     19.7290	 3104.00	 3190.54	-1681.34	 2668.51
     19.7550	 3120.00	 3191.89	-1666.69	 2670.99
     19.7810	 3178.00	 3193.26	-1610.06	 2673.45
     19.8070	 3150.00	 3194.49	-1639.29	 2675.72
     19.8330	 3093.00	 3195.77	-1697.57	 2677.98
     19.8590	 3136.00	 3197.08	-1655.88	 2680.25
     19.8850	 3210.00	 3198.44	-1583.24	 2682.52
     19.9110	 3208.00	 3199.83	-1586.63	 2684.78
     19.9370	 3167.00	 3201.25	-1629.05	 2687.05
     19.9630	 3223.00	 3202.71	-1574.52	 2689.32
     19.9890	 3215.00	 3204.21	-1584.01	 2691.58
     20.0150	 3202.00	 3205.73	-1598.53	 2693.85
     20.0410	 3178.00	 3207.28	-1624.08	 2696.12
     20.0670	 3160.00	 3208.86	-1643.66	 2698.38
     20.0930	 3224.00	 3210.47	-1581.27	 2700.65
     20.1190	 3267.00	 3212.10	-1539.90	 2702.92
     20.1450	 3238.00	 3213.75	-1570.56	 2705.18
     20.1710	 3192.00	 3215.43	-1618.23	 2707.45
     20.1970	 3211.00	 3217.13	-1600.93	 2709.72
     20.2230	 3212.00	 3218.85	-1601.66	 2711.99
     20.2490	 3153.00	 3220.60	-1662.40	 2714.25
     20.2750	 3133.00	 3222.36	-1684.16	 2716.52
     20.3010	 3140.00	 3224.14	-1678.94	 2718.79
     20.3270	 3157.00	 3225.93	-1663.73	 2721.05
     20.3530	 3209.00	 3227.74	-1613.55	 2723.32
     20.3790	 3199.00	 3229.57	-1625.38	 2725.59
     20.4050	 3320.00	 3231.42	-1506.22	 2727.85
     20.4310	 3252.00	 3233.28	-1576.08	 2730.12
     20.4570	 3290.00	 3235.15	-1539.95	 2732.39
     20.4830	 3356.00	 3237.04	-1475.84	 2734.65
     20.5090	 3144.00	 3238.94	-1689.74	 2736.92
     20.5350	 3292.00	 3240.85	-1543.65	 2739.19
     20.5610	 3185.00	 3242.78	-1652.58	 2741.45
     20.5870	 3238.00	 3244.71	-1601.51	 2743.72
     20.6130	 3281.00	 3246.66	-1560.46	 2745.99
     20.6390	 3371.00	 3248.62	-1472.42	 2748.25
     20.6650	 3316.00	 3250.59	-1529.39	 2750.52
     20.6910	 3164.00	 3252.56	-1683.37	 2752.79
     20.7170	 3333.00	 3254.55	-1516.35	 2755.06
     20.7430	 3367.00	 3256.55	-1484.35	 2757.32
     20.7690	 3300.00	 3258.56	-1553.36	 2759.59
     20.7950	 3242.00	 3260.57	-1613.37	 2761.86
     20.8210	 3256.00	 3262.59	-1601.39	 2764.12
     20.8470	 3231.00	 3264.62	-1628.43	 2766.39
     20.8730	 3257.00	 3266.66	-1604.46	 2768.66
     20.8990	 3321.00	 3268.71	-1542.51	 2770.92
     20.9250	 3208.00	 3270.76	-1657.56	 2773.19
     20.9510	 3373.00	 3272.82	-1494.62	 2775.46
     20.9770	 3213.00	 3274.89	-1656.69	 2777.72
     21.0030	 3259.00	 3276.96	-1612.76	 2779.99
     21.0290	 3276.00	 3279.04	-1597.84	 2782.26
     21.0550	 3159.00	 3281.13	-1716.93	 2784.52
     21.0810	 3268.00	 3283.22	-1610.02	 2786.79
     21.1070	 3326.00	 3285.32	-1554.12	 2789.06
     21.1330	 3313.00	 3287.42	-1569.22	 2791.32
     21.1590	 3310.00	 3289.53	-1574.33	 2793.59
     21.1850	 3189.00	 3291.64	-1697.44	 2795.86
     21.2110	 3348.00	 3293.76	-1540.56	 2798.13
     21.2370	 3277.00	 3295.88	-1613.68	 2800.39
     21.2630	 3305.00	 3298.01	-1587.81	 2802.66
     21.2890	 3363.00	 3300.14	-1531.94	 2804.93
     21.3150	 3375.00	 3302.28	-1522.08	 2807.19
     21.3410	 3380.00	 3304.42	-1519.22	 2809.46
     21.3670	 3311.00	 3306.56	-1590.36	 2811.73
     21.3930	 3291.00	 3308.71	-1612.51	 2813.99
     21.4190	 3299.00	 3310.87	-1606.67	 2816.26
     21.4450	 3310.00	 3313.02	-1597.82	 2818.53
     21.4710	 3276.00	 3315.18	-1633.98	 2820.79
     21.4970	 3360.00	 3317.35	-1552.15	 2823.06
     21.5230	 3322.00	 3319.52	-1592.32	 2825.33
     21.5490	 3403.00	 3321.69	-1513.49	 2827.59
     21.5750	 3404.00	 3323.86	-1514.66	 2829.86
     21.6010	 3379.00	 3326.04	-1541.84	 2832.13
     21.6270	 3384.00	 3328.22	-1539.02	 2834.39
     21.6530	 3388.00	 3330.40	-1537.21	 2836.66
     21.6790	 3346.00	 3332.59	-1581.39	 2838.93
     21.7050	 3388.00	 3334.97	-1541.77	 2841.20
     21.7310	 3370.00	 3337.17	-1561.97	 2843.46
     21.7570	 3374.00	 3339.36	-1560.16	 2845.73
     21.7830	 3354.00	 3342.23	-1583.03	 2848.67
     21.8090	 3324.00	 3345.51	-1616.31	 2852.01
     21.8350	 3356.00	 3348.88	-1587.68	 2855.35
     21.8610	 3402.00	 3352.16	-1544.96	 2858.69
     21.8870	 3389.00	 3355.45	-1561.25	 2862.04
     21.9130	 3373.00	 3358.73	-1580.54	 2865.38
     21.9390	 3425.00	 3362.02	-1531.83	 2868.72
     21.9650	 3436.00	 3365.32	-1524.12	 2872.06
     21.9910	 3393.00	 3368.61	-1570.41	 2875.41
     22.0170	 3413.00	 3371.91	-1553.71	 2878.75
     22.0430	 3483.00	 3375.21	-1487.01	 2882.09
     22.0690	 3505.00	 3378.51	-1468.31	 2885.43
     22.0950	 3432.00	 3381.81	-1544.61	 2888.78
     22.1210	 3394.00	 3385.11	-1585.92	 2892.12
     22.1470	 3439.00	 3388.42	-1544.22	 2895.46
     22.1730	 3414.00	 3391.73	-1572.53	 2898.80
     22.1990	 3414.00	 3395.04	-1575.84	 2902.15
     22.2250	 3434.00	 3398.35	-1559.15	 2905.49
     22.2510	 3400.00	 3401.67	-1596.47	 2908.83
     22.2770	 3448.00	 3404.98	-1551.79	 2912.17
     22.3030	 3425.00	 3408.30	-1578.10	 2915.51
     22.3290	 3367.00	 3411.62	-1639.42	 2918.86
     22.3550	 3405.00	 3414.94	-1604.74	 2922.20
     22.3810	 3461.00	 3418.27	-1552.07	 2925.54
     22.4070	 3487.00	 3421.59	-1529.39	 2928.88
     22.4330	 3463.00	 3424.92	-1556.72	 2932.23
     22.4590	 3451.00	 3428.25	-1572.05	 2935.57
     22.4850	 3406.00	 3431.58	-1620.38	 2938.91
     22.5110	 3543.00	 3434.91	-1486.71	 2942.25
     22.5370	 3467.00	 3438.24	-1566.04	 2945.60
     22.5630	 3502.00	 3441.58	-1534.38	 2948.94
     22.5890	 3539.00	 3444.91	-1500.71	 2952.28
     22.6150	 3466.00	 3448.25	-1577.05	 2955.62
     22.6410	 3324.00	 3451.59	-1722.39	 2958.97
     22.6670	 3427.00	 3454.93	-1622.73	 2962.31
     22.6930	 3510.00	 3458.27	-1543.07	 2965.65
     22.7190	 3556.00	 3461.61	-1500.42	 2968.99
     22.7450	 3486.00	 3464.96	-1573.76	 2972.34
     22.7710	 3460.00	 3468.30	-1603.11	 2975.68
     22.7970	 3548.00	 3471.65	-1518.45	 2979.02
     22.8230	 3457.00	 3475.00	-1612.80	 2982.36
     22.8490	 3556.00	 3478.35	-1517.15	 2985.71
     22.8750	 3532.00	 3481.70	-1544.50	 2989.05
     22.9010	 3521.00	 3485.05	-1558.86	 2992.39
     22.9270	 3527.00	 3488.41	-1556.21	 2995.73
     22.9530	 3516.00	 3491.76	-1570.56	 2999.08
     22.9790	 3468.00	 3495.12	-1621.92	 3002.42
     23.0050	 3508.00	 3498.48	-1585.28	 3005.76
     23.0310	 3540.00	 3500.19	-1555.00	 3007.46
     23.0570	 3465.00	 3500.94	-1630.74	 3008.19
     23.0830	 3424.00	 3501.68	-1672.48	 3008.91
     23.1090	 3569.00	 3502.42	-1528.22	 3009.63
     23.1350	 3550.00	 3503.17	-1547.97	 3010.36
     23.1610	 3564.00	 3503.92	-1534.72	 3011.08
     23.1870	 3545.00	 3504.66	-1554.46	 3011.81
     23.2130	 3610.00	 3505.41	-1490.21	 3012.53
     23.2390	 3605.00	 3506.16	-1495.96	 3013.25
     23.2650	 3534.00	 3506.91	-1567.71	 3013.98
     23.2910	 3510.00	 3507.67	-1592.47	 3014.70
     23.3170	 3570.00	 3508.42	-1533.22	 3015.43
     23.3430	 3567.00	 3509.17	-1536.97	 3016.15
     23.3690	 3534.00	 3509.93	-1570.73	 3016.87
     23.3950	 3525.00	 3510.69	-1580.49	 3017.60
     23.4210	 3588.00	 3511.44	-1518.25	 3018.32
     23.4470	 3551.00	 3512.20	-1556.00	 3019.05
     23.4730	 3583.00	 3512.96	-1524.76	 3019.77
     23.4990	 3668.00	 3513.72	-1440.53	 3020.49
     23.5250	 3602.00	 3514.49	-1507.29	 3021.22
     23.5510	 3589.00	 3515.25	-1521.05	 3021.94
     23.5770	 3558.00	 3516.02	-1552.82	 3022.67
     23.6030	 3495.00	 3516.78	-1616.58	 3023.39
     23.6290	 3653.00	 3517.55	-1459.35	 3024.11
     23.6550	 3521.00	 3518.32	-1592.12	 3024.84
     23.6810	 3456.00	 3519.09	-1657.89	 3025.56
     23.7070	 3536.00	 3519.86	-1578.66	 3026.29
     23.7330	 3661.00	 3520.63	-1454.43	 3027.01
     23.7590	 3672.00	 3521.40	-1444.20	 3027.73
     23.7850	 3601.00	 3522.17	-1515.97	 3028.46
     23.8110	 3665.00	 3522.95	-1452.75	 3029.18
     23.8370	 3626.00	 3523.72	-1492.52	 3029.91
     23.8630	 3584.00	 3524.50	-1535.30	 3030.63
     23.8890	 3627.00	 3525.28	-1493.08	 3031.35
     23.9150	 3564.00	 3526.06	-1556.86	 3032.08
     23.9410	 3622.00	 3526.84	-1499.64	 3032.80
     23.9670	 3677.00	 3527.62	-1445.42	 3033.53
     23.9930	 3642.00	 3528.40	-1481.20	 3034.25
     24.0190	 3631.00	 3529.18	-1492.98	 3034.97
     24.0450	 3681.00	 3529.97	-1443.77	 3035.70
     24.0710	 3606.00	 3530.75	-1519.56	 3036.42
     24.0970	 3637.00	 3531.54	-1489.34	 3037.15
     24.1230	 3647.00	 3532.33	-1480.13	 3037.87
     24.1490	 3664.00	 3533.12	-1463.92	 3038.59
     24.1750	 3633.00	 3533.91	-1495.71	 3039.32
     24.2010	 3700.00	 3534.70	-1429.50	 3040.04
     24.2270	 3658.00	 3535.49	-1472.29	 3040.77
     24.2530	 3582.00	 3536.29	-1549.09	 3041.49
     24.2790	 3637.00	 3537.08	-1494.88	 3042.22
     24.3050	 3604.00	 3537.88	-1528.68	 3042.94
     24.3310	 3627.00	 3538.67	-1506.48	 3043.66
     24.3570	 3610.00	 3539.47	-1524.27	 3044.39
     24.3830	 3547.00	 3540.27	-1588.07	 3045.11
     24.4090	 3591.00	 3541.07	-1544.87	 3045.84
     24.4350	 3597.00	 3541.87	-1539.68	 3046.56
     24.4610	 3620.00	 3542.68	-1517.48	 3047.28
     24.4870	 3619.00	 3543.48	-1519.28	 3048.01
     24.5130	 3605.00	 3544.29	-1534.09	 3048.73
     24.5390	 3647.00	 3545.10	-1492.90	 3049.46
     24.5650	 3656.00	 3545.90	-1484.71	 3050.18
     24.5910	 3667.00	 3546.71	-1474.51	 3050.90
     24.6170	 3614.00	 3547.52	-1528.33	 3051.63
     24.6430	 3581.00	 3548.34	-1562.14	 3052.35
     24.6690	 3615.00	 3549.15	-1528.95	 3053.08
     24.6950	 3598.00	 3549.96	-1546.77	 3053.80
     24.7210	 3564.00	 3550.78	-1581.58	 3054.52
     24.7470	 3589.00	 3551.60	-1557.40	 3055.25
     24.7730	 3586.00	 3552.42	-1561.22	 3055.97
     24.7990	 3580.00	 3553.24	-1568.04	 3056.70
     24.8250	 3632.00	 3554.06	-1516.86	 3057.42
     24.8510	 3589.00	 3554.88	-1560.68	 3058.14
     24.8770	 3617.00	 3555.71	-1533.51	 3058.87
     24.9030	 3659.00	 3556.54	-1492.34	 3059.59
     24.9290	 3613.00	 3557.37	-1539.17	 3060.32
     24.9550	 3626.00	 3558.20	-1527.00	 3061.04
     24.9810	 3644.00	 3559.03	-1509.83	 3061.76
     25.0070	 3603.00	 3559.86	-1551.66	 3062.49
     25.0330	 3580.00	 3560.70	-1575.50	 3063.21
     25.0590	 3625.00	 3561.53	-1531.33	 3063.94
     25.0850	 3695.00	 3562.37	-1462.17	 3064.66
     25.1110	 3716.00	 3563.21	-1442.01	 3065.38
     25.1370	 3708.00	 3564.05	-1450.85	 3066.11
     25.1630	 3696.00	 3564.89	-1463.69	 3066.83
     25.1890	 3713.00	 3565.73	-1447.53	 3067.56
     25.2150	 3734.00	 3566.57	-1427.38	 3068.28
     25.2410	 3614.00	 3567.42	-1548.22	 3069.00
     25.2670	 3614.00	 3568.27	-1549.07	 3069.73
     25.2930	 3686.00	 3568.93	-1477.73	 3070.26
     25.3190	 3698.00	 3569.46	-1466.26	 3070.66
     25.3450	 3685.00	 3569.99	-1479.79	 3071.07
     25.3710	 3626.00	 3570.53	-1539.33	 3071.47
     25.3970	 3713.00	 3571.06	-1452.86	 3071.88
     25.4230	 3612.00	 3571.60	-1554.40	 3072.28
     25.4490	 3635.00	 3572.14	-1531.94	 3072.68
     25.4750	 3642.00	 3572.69	-1525.49	 3073.09
     25.5010	 3619.00	 3573.23	-1549.03	 3073.49
     25.5270	 3604.00	 3573.78	-1564.58	 3073.89
     25.5530	 3638.00	 3574.33	-1531.13	 3074.30
     25.5790	 3559.00	 3574.88	-1610.68	 3074.70
     25.6050	 3653.00	 3575.43	-1517.23	 3075.10
     25.6310	 3638.00	 3575.98	-1532.78	 3075.51
     25.6570	 3619.00	 3576.54	-1552.34	 3075.91
     25.6830	 3597.00	 3577.10	-1574.90	 3076.32
     25.7090	 3549.00	 3577.66	-1623.46	 3076.72
     25.7350	 3596.00	 3578.23	-1577.03	 3077.12
     25.7610	 3697.00	 3578.79	-1476.59	 3077.53
     25.7870	 3736.00	 3579.36	-1438.16	 3077.93
     25.8130	 3574.00	 3579.93	-1600.73	 3078.33
     25.8390	 3543.00	 3580.51	-1632.31	 3078.74
     25.8650	 3666.00	 3581.08	-1509.88	 3079.14
     25.8910	 3652.00	 3581.66	-1524.46	 3079.54
     25.9170	 3527.00	 3582.24	-1650.04	 3079.95
     25.9430	 3583.00	 3582.83	-1594.63	 3080.35
     25.9690	 3614.00	 3583.41	-1564.21	 3080.76
     25.9950	 3572.00	 3584.00	-1606.80	 3081.16
     26.0210	 3629.00	 3584.59	-1550.40	 3081.56
     26.0470	 3525.00	 3585.19	-1654.99	 3081.97
     26.0730	 3675.00	 3585.79	-1505.59	 3082.37
     26.0990	 3587.00	 3586.39	-1594.19	 3082.77
     26.1250	 3574.00	 3586.99	-1607.79	 3083.18
     26.1510	 3673.00	 3587.60	-1509.40	 3083.58
     26.1770	 3585.00	 3588.21	-1598.01	 3083.98
     26.2030	 3588.00	 3588.82	-1595.63	 3084.39
     26.2290	 3621.00	 3589.44	-1563.24	 3084.79
     26.2550	 3578.00	 3590.06	-1606.86	 3085.20
     26.2810	 3664.00	 3590.69	-1521.49	 3085.60
     26.3070	 3657.00	 3591.31	-1529.12	 3086.00
     26.3330	 3774.00	 3591.95	-1412.75	 3086.41
     26.3590	 3600.00	 3592.58	-1587.38	 3086.81
     26.3850	 3507.00	 3593.22	-1681.02	 3087.21
     26.4110	 3589.00	 3593.86	-1599.66	 3087.62
     26.4370	 3611.00	 3594.51	-1578.31	 3088.02
     26.4630	 3546.00	 3595.16	-1643.96	 3088.42
     26.4890	 3595.00	 3595.81	-1595.62	 3088.83
     26.5150	 3627.00	 3596.47	-1564.28	 3089.23
     26.5410	 3718.00	 3597.14	-1473.94	 3089.64
     26.5670	 3624.00	 3597.81	-1568.61	 3090.04
     26.5930	 3629.00	 3598.48	-1564.28	 3090.44
     26.6190	 3783.00	 3599.16	-1410.96	 3090.85
     26.6450	 3679.00	 3599.84	-1515.64	 3091.25
     26.6710	 3655.00	 3600.53	-1540.33	 3091.65
     26.6970	 3655.00	 3601.22	-1541.02	 3092.06
     26.7230	 3660.00	 3601.92	-1536.72	 3092.46
     26.7490	 3637.00	 3602.62	-1560.42	 3092.86
     26.7750	 3636.00	 3603.33	-1562.13	 3093.27
     26.8010	 3554.00	 3604.04	-1644.84	 3093.67
     26.8270	 3592.00	 3604.76	-1607.56	 3094.08
     26.8530	 3582.00	 3605.49	-1618.29	 3094.48
     26.8790	 3607.00	 3606.22	-1594.02	 3094.88
     26.9050	 3630.00	 3606.96	-1571.76	 3095.29
     26.9310	 3618.00	 3607.71	-1584.51	 3095.69
     26.9570	 3623.00	 3608.46	-1580.26	 3096.09
     26.9830	 3593.00	 3609.22	-1611.02	 3096.50
     27.0090	 3569.00	 3609.98	-1635.78	 3096.90
     27.0350	 3593.00	 3610.75	-1612.56	 3097.30
     27.0610	 3604.00	 3611.53	-1602.34	 3097.71
     27.0870	 3622.00	 3612.32	-1585.12	 3098.11
     27.1130	 3590.00	 3613.12	-1617.92	 3098.52
     27.1390	 3580.00	 3613.92	-1628.72	 3098.92
     27.1650	 3658.00	 3614.74	-1551.54	 3099.32
     27.1910	 3636.00	 3615.56	-1574.36	 3099.73
     27.2170	 3636.00	 3616.39	-1575.19	 3100.13
     27.2430	 3681.00	 3617.23	-1531.03	 3100.53
     27.2690	 3653.00	 3618.08	-1559.88	 3100.94
     27.2950	 3643.00	 3618.94	-1570.74	 3101.34
     27.3210	 3640.00	 3619.81	-1574.61	 3101.74
     27.3470	 3624.00	 3620.69	-1591.49	 3102.15
     27.3730	 3654.00	 3621.58	-1562.38	 3102.55
     27.3990	 3684.00	 3622.48	-1533.28	 3102.96
     27.4250	 3703.00	 3623.39	-1515.19	 3103.36
     27.4510	 3716.00	 3624.44	-1503.24	 3103.88
     27.4770	 3665.00	 3625.83	-1555.63	 3104.74
     27.5030	 3658.00	 3627.23	-1564.03	 3105.59
     27.5290	 3681.00	 3628.64	-1542.44	 3106.44
     27.5550	 3672.00	 3630.07	-1552.87	 3107.29
     27.5810	 3578.00	 3631.51	-1648.31	 3108.15
     27.6070	 3492.00	 3632.97	-1735.77	 3109.00
     27.6330	 3595.00	 3634.44	-1634.24	 3109.85
     27.6590	 3683.00	 3635.93	-1547.73	 3110.71
     27.6850	 3794.00	 3637.44	-1438.24	 3111.56
     27.7110	 3775.00	 3638.96	-1458.76	 3112.41
     27.7370	 3678.00	 3640.50	-1557.30	 3113.27
     27.7630	 3650.00	 3642.06	-1586.86	 3114.12
     27.7890	 3737.00	 3643.64	-1501.44	 3114.97
     27.8150	 3714.00	 3645.23	-1526.04	 3115.83
     27.8410	 3664.00	 3646.85	-1577.66	 3116.68
     27.8670	 3649.00	 3648.50	-1594.30	 3117.53
     27.8930	 3725.00	 3650.16	-1519.96	 3118.39
     27.9190	 3772.00	 3651.85	-1474.65	 3119.24
     27.9450	 3756.00	 3653.58	-1492.39	 3120.09
     27.9710	 3797.00	 3655.32	-1453.12	 3120.95
     27.9970	 3753.00	 3657.09	-1498.89	 3121.80
     28.0230	 3749.00	 3658.88	-1504.68	 3122.65
     28.0490	 3714.00	 3660.70	-1541.51	 3123.51
     28.0750	 3747.00	 3662.57	-1510.37	 3124.36
     28.1010	 3717.00	 3664.45	-1542.26	 3125.21
     28.1270	 3668.00	 3666.37	-1593.17	 3126.06
     28.1530	 3721.00	 3668.33	-1542.13	 3126.92
     28.1790	 3862.00	 3670.32	-1403.12	 3127.77
     28.2050	 3792.00	 3672.35	-1475.15	 3128.62
     28.2310	 3670.00	 3674.42	-1599.22	 3129.48
     28.2570	 3803.00	 3676.53	-1468.33	 3130.33
     28.2830	 3788.00	 3678.68	-1485.48	 3131.18
     28.3090	 3758.00	 3680.88	-1517.68	 3132.04
     28.3350	 3699.00	 3683.13	-1578.93	 3132.89
     28.3610	 3667.00	 3685.43	-1613.24	 3133.74
     28.3870	 3697.00	 3687.79	-1585.59	 3134.60
     28.4130	 3768.00	 3690.20	-1517.00	 3135.45
     28.4390	 3748.00	 3692.67	-1539.47	 3136.30
     28.4650	 3807.00	 3695.21	-1483.01	 3137.16
     28.4910	 3649.00	 3697.81	-1643.61	 3138.01
     28.5170	 3764.00	 3700.48	-1531.28	 3138.86
     28.5430	 3839.00	 3703.22	-1459.02	 3139.72
     28.5690	 3820.00	 3706.04	-1480.84	 3140.57
     28.5950	 3789.00	 3708.94	-1514.74	 3141.42
     28.6210	 3918.00	 3711.93	-1388.73	 3142.28
     28.6470	 3938.00	 3715.00	-1371.81	 3143.13
     28.6730	 3810.00	 3718.18	-1502.98	 3143.98
     28.6990	 3908.00	 3721.45	-1408.25	 3144.84
     28.7250	 3885.00	 3723.94	-1433.74	 3144.79
     28.7510	 3864.00	 3726.22	-1457.02	 3144.44
     28.7770	 3803.00	 3728.63	-1520.43	 3144.08
     28.8030	 3939.00	 3731.16	-1386.96	 3143.73
     28.8290	 3861.00	 3733.83	-1467.63	 3143.37
     28.8550	 3824.00	 3736.63	-1507.43	 3143.02
     28.8810	 3868.00	 3739.59	-1466.39	 3142.66
     28.9070	 3655.00	 3742.70	-1682.50	 3142.31
     28.9330	 3771.00	 3745.98	-1569.79	 3141.95
     28.9590	 3791.00	 3749.44	-1553.24	 3141.59
     28.9850	 3768.00	 3753.09	-1579.89	 3141.24
     29.0110	 3750.00	 3756.93	-1601.73	 3140.88
     29.0370	 3764.00	 3760.98	-1591.78	 3140.53
     29.0630	 3797.00	 3765.25	-1563.05	 3140.17
     29.0890	 3765.00	 3769.75	-1599.55	 3139.82
     29.1150	 3894.00	 3774.49	-1475.30	 3139.46
     29.1410	 3871.00	 3779.49	-1503.30	 3139.11
     29.1670	 3810.00	 3784.76	-1569.56	 3138.75
     29.1930	 3935.00	 3790.31	-1450.11	 3138.40
     29.2190	 3888.00	 3796.15	-1502.96	 3138.04
     29.2450	 3828.00	 3802.30	-1569.10	 3137.69
     29.2710	 3924.00	 3808.76	-1479.57	 3137.33
     29.2970	 3875.00	 3815.56	-1535.36	 3136.98
     29.3230	 3859.00	 3822.68	-1558.48	 3136.62
     29.3490	 3822.00	 3830.15	-1602.95	 3136.27
     29.3750	 3796.00	 3837.97	-1636.77	 3135.91
     29.4010	 3858.00	 3846.13	-1582.93	 3135.56
     29.4270	 3862.00	 3854.64	-1587.44	 3135.20
     29.4530	 3850.00	 3863.49	-1608.29	 3134.85
     29.4790	 3962.00	 3872.66	-1505.46	 3134.49
     29.5050	 3938.00	 3882.14	-1538.94	 3134.14
     29.5310	 3867.00	 3891.89	-1619.69	 3133.78
     29.5570	 3842.00	 3901.89	-1654.69	 3133.43
     29.5830	 3878.00	 3912.07	-1628.87	 3133.07
     29.6090	 3873.00	 3922.39	-1644.19	 3132.72
     29.6350	 3777.00	 3932.77	-1750.57	 3132.36
     29.6610	 3815.00	 3943.12	-1722.92	 3132.01
     29.6870	 3963.00	 3953.36	-1585.16	 3131.65
     29.7130	 3933.00	 3963.37	-1625.17	 3131.29
     29.7390	 3868.00	 3973.03	-1699.83	 3130.94
     29.7650	 3882.00	 3982.22	-1695.02	 3130.58
     29.7910	 3855.00	 3990.80	-1730.60	 3130.23
     29.8170	 3800.00	 3998.64	-1793.44	 3129.87
     29.8430	 3891.00	 4005.60	-1709.40	 3129.52
     29.8690	 3935.00	 4011.55	-1671.35	 3129.16
     29.8950	 3883.00	 4016.39	-1728.19	 3128.81
     29.9210	 3883.00	 4020.02	-1731.82	 3128.45
     29.9470	 3889.00	 4022.35	-1728.15	 3128.10
     29.9730	 3850.00	 4023.36	-1768.16	 3127.74
     29.9990	 3811.00	 4023.00	-1806.80	 3127.39
     30.0250	 3887.00	 4021.31	-1729.11	 3127.03
     30.0510	 3847.00	 4018.31	-1766.11	 3126.68
     30.0770	 3720.00	 4014.07	-1888.87	 3126.32
     30.1030	 3796.00	 4008.68	-1807.48	 3125.97
     30.1290	 3844.00	 4002.25	-1753.05	 3125.61
     30.1550	 3813.00	 3994.90	-1776.70	 3125.26
     30.1810	 3823.00	 3986.76	-1758.56	 3124.90
     30.2070	 3829.00	 3977.97	-1743.77	 3124.55
     30.2330	 3814.00	 3968.67	-1749.47	 3124.19
     30.2590	 3776.00	 3958.98	-1777.78	 3123.84
     30.2850	 3821.00	 3949.02	-1722.82	 3123.48
     30.3110	 3852.00	 3938.91	-1681.71	 3123.13
     30.3370	 3825.00	 3928.75	-1698.55	 3122.77
     30.3630	 3854.00	 3918.62	-1659.42	 3122.42
     30.3890	 3806.00	 3908.61	-1697.41	 3122.06
     30.4150	 3814.00	 3898.77	-1679.57	 3121.71
     30.4410	 3842.00	 3889.15	-1641.96	 3121.35
     30.4670	 3836.00	 3879.81	-1638.61	 3120.99
     30.4930	 3837.00	 3870.76	-1628.56	 3120.64
     30.5190	 3851.00	 3862.04	-1605.84	 3120.28
     30.5450	 3777.00	 3853.66	-1671.46	 3119.93
     30.5710	 3787.00	 3845.62	-1653.42	 3119.57
     30.5970	 3857.00	 3837.94	-1575.74	 3119.22
     30.6230	 3780.00	 3830.61	-1645.41	 3118.86
     30.6490	 3760.00	 3823.63	-1658.43	 3118.51
     30.6750	 3737.00	 3816.99	-1674.79	 3118.15
     30.7010	 3817.00	 3810.69	-1588.49	 3117.80
     30.7270	 3827.00	 3804.72	-1572.52	 3117.44
     30.7530	 3714.00	 3799.07	-1679.87	 3117.09
     30.7790	 3833.00	 3793.72	-1555.52	 3116.73
     30.8050	 3755.00	 3788.66	-1628.46	 3116.38
     30.8310	 3755.00	 3783.93	-1623.73	 3116.02
     30.8570	 3668.00	 3779.42	-1706.22	 3115.67
     30.8830	 3746.00	 3775.17	-1623.97	 3115.31
     30.9090	 3807.00	 3771.16	-1558.96	 3114.96
     30.9350	 3715.00	 3767.39	-1647.19	 3114.60
     30.9610	 3684.00	 3763.84	-1674.64	 3114.25
     30.9870	 3628.00	 3760.52	-1727.32	 3113.89
     31.0130	 3638.00	 3757.38	-1714.18	 3113.54
     31.0390	 3617.00	 3754.43	-1732.23	 3113.18
     31.0650	 3727.00	 3751.67	-1619.47	 3112.83
     31.0910	 3625.00	 3749.07	-1718.87	 3112.47
     31.1170	 3654.00	 3746.64	-1687.44	 3112.12
     31.1430	 3654.00	 3744.37	-1685.17	 3111.76
     31.1690	 3660.00	 3742.25	-1677.05	 3111.41
     31.1950	 3621.00	 3740.27	-1714.07	 3111.05
     31.2210	 3637.00	 3738.42	-1696.22	 3110.69
     31.2470	 3669.00	 3736.71	-1662.51	 3110.34
     31.2730	 3680.00	 3735.12	-1649.92	 3109.98
     31.2990	 3736.00	 3733.64	-1592.45	 3109.63
     31.3250	 3611.00	 3732.29	-1716.09	 3109.27
     31.3510	 3595.00	 3731.03	-1730.84	 3108.92
     31.3770	 3653.00	 3729.89	-1671.69	 3108.56
     31.4030	 3677.00	 3728.84	-1646.64	 3108.21
     31.4290	 3664.00	 3727.89	-1658.69	 3107.85
     31.4550	 3636.00	 3727.03	-1685.84	 3107.50
     31.4810	 3679.00	 3726.27	-1642.07	 3107.14
     31.5070	 3649.00	 3725.59	-1671.39	 3106.79
     31.5330	 3652.00	 3724.99	-1667.79	 3106.43
     31.5590	 3627.00	 3724.47	-1692.28	 3106.08
     31.5850	 3596.00	 3724.04	-1722.84	 3105.72
     31.6110	 3584.00	 3723.68	-1734.48	 3105.37
     31.6370	 3725.00	 3723.39	-1593.19	 3105.01
     31.6630	 3546.00	 3723.18	-1771.98	 3104.66
     31.6890	 3642.00	 3723.04	-1675.84	 3104.30
     31.7150	 3674.00	 3722.97	-1643.77	 3103.95
     31.7410	 3619.00	 3722.61	-1698.41	 3103.24
     31.7670	 3653.00	 3720.71	-1662.51	 3100.92
     31.7930	 3627.00	 3718.88	-1686.68	 3098.60
     31.8190	 3655.00	 3717.11	-1656.91	 3096.28
     31.8450	 3582.00	 3715.41	-1728.21	 3093.96
     31.8710	 3593.00	 3713.77	-1715.57	 3091.64
     31.8970	 3713.00	 3712.19	-1593.99	 3089.32
     31.9230	 3621.00	 3710.68	-1684.48	 3087.00
     31.9490	 3583.00	 3709.23	-1721.03	 3084.68
     31.9750	 3618.00	 3707.84	-1684.64	 3082.36
     32.0010	 3653.00	 3706.51	-1648.31	 3080.05
     32.0270	 3613.00	 3705.25	-1687.05	 3077.73
     32.0530	 3620.00	 3704.05	-1678.85	 3075.41
     32.0790	 3590.00	 3702.91	-1707.71	 3073.09
     32.1050	 3579.00	 3701.83	-1717.63	 3070.77
     32.1310	 3548.00	 3700.82	-1747.62	 3068.45
     32.1570	 3606.00	 3699.87	-1688.67	 3066.13
     32.1830	 3646.00	 3698.98	-1647.78	 3063.81
     32.2090	 3693.00	 3698.16	-1599.96	 3061.49
     32.2350	 3628.00	 3697.40	-1664.20	 3059.17
     32.2610	 3480.00	 3696.71	-1811.51	 3056.85
     32.2870	 3536.00	 3696.09	-1754.89	 3054.53
     32.3130	 3537.00	 3695.53	-1753.33	 3052.22
     32.3390	 3564.00	 3695.05	-1725.85	 3049.90
     32.3650	 3579.00	 3694.63	-1710.43	 3047.58
     32.3910	 3545.00	 3694.29	-1744.09	 3045.26
     32.4170	 3592.00	 3694.02	-1696.82	 3042.94
     32.4430	 3648.00	 3693.82	-1640.62	 3040.62
     32.4690	 3579.00	 3693.70	-1709.50	 3038.30
     32.4950	 3557.00	 3693.66	-1731.46	 3035.98
     32.5210	 3551.00	 3693.70	-1737.50	 3033.66
     32.5470	 3540.00	 3693.82	-1748.62	 3031.34
     32.5730	 3621.00	 3694.02	-1667.82	 3029.02
     32.5990	 3620.00	 3694.31	-1669.11	 3026.71
     32.6250	 3607.00	 3694.69	-1682.49	 3024.39
     32.6510	 3604.00	 3695.16	-1685.96	 3022.07
     32.6770	 3619.00	 3695.72	-1671.52	 3019.75
     32.7030	 3707.00	 3696.38	-1584.18	 3017.43
     32.7290	 3741.00	 3697.14	-1550.94	 3015.11
     32.7550	 3735.00	 3698.00	-1557.80	 3012.79
     32.7810	 3681.00	 3698.96	-1612.76	 3010.47
     32.8070	 3686.00	 3700.04	-1608.84	 3008.15
     32.8330	 3730.00	 3701.22	-1566.02	 3005.83
     32.8590	 3662.00	 3702.53	-1635.33	 3003.51
     32.8850	 3622.00	 3703.95	-1676.75	 3001.19
     32.9110	 3693.00	 3705.50	-1607.30	 2998.88
     32.9370	 3657.00	 3707.17	-1644.97	 2996.56
     32.9630	 3684.00	 3708.98	-1619.78	 2994.24
     32.9890	 3657.00	 3710.93	-1648.73	 2991.92
     33.0150	 3692.00	 3713.02	-1615.82	 2989.60
     33.0410	 3732.00	 3715.26	-1578.06	 2987.28
     33.0670	 3675.00	 3717.65	-1637.45	 2984.96
     33.0930	 3780.00	 3720.09	-1534.89	 2982.53
     33.1190	 3701.00	 3720.66	-1614.46	 2978.06
     33.1450	 3797.00	 3721.41	-1519.21	 2973.59
     33.1710	 3784.00	 3722.33	-1533.13	 2969.13
     33.1970	 3771.00	 3723.44	-1547.25	 2964.66
     33.2230	 3784.00	 3724.75	-1535.56	 2960.19
     33.2490	 3879.00	 3726.27	-1442.07	 2955.73
     33.2750	 3828.00	 3727.99	-1494.79	 2951.26
     33.3010	 3797.00	 3729.94	-1527.74	 2946.79
     33.3270	 3867.00	 3732.11	-1459.92	 2942.33
     33.3530	 3845.00	 3734.53	-1484.33	 2937.86
     33.3790	 3862.00	 3737.20	-1470.01	 2933.39
     33.4050	 3878.00	 3740.14	-1456.94	 2928.93
     33.4310	 3891.00	 3743.35	-1447.15	 2924.46
     33.4570	 4045.00	 3746.85	-1296.65	 2919.99
     33.4830	 3939.00	 3750.65	-1406.45	 2915.53
     33.5090	 3900.00	 3754.79	-1449.59	 2911.06
     33.5350	 3970.00	 3759.24	-1384.04	 2906.59
     33.5610	 4037.00	 3764.03	-1321.83	 2902.13
     33.5870	 4058.00	 3769.19	-1305.99	 2897.66
     33.6130	 4017.00	 3774.73	-1352.53	 2893.19
     33.6390	 4022.00	 3780.67	-1353.47	 2888.73
     33.6650	 4167.00	 3787.05	-1214.85	 2884.26
     33.6910	 4078.00	 3793.85	-1310.65	 2879.79
     33.7170	 4117.00	 3801.12	-1278.92	 2875.33
     33.7430	 4090.00	 3808.88	-1313.68	 2870.86
     33.7690	 4103.00	 3817.15	-1308.96	 2866.39
     33.7950	 4116.00	 3825.97	-1304.77	 2861.93
     33.8210	 4241.00	 3835.36	-1189.16	 2857.46
     33.8470	 4259.00	 3845.35	-1181.15	 2852.99
     33.8730	 4191.00	 3855.98	-1259.78	 2848.53
     33.8990	 4264.00	 3867.27	-1198.07	 2844.06
     33.9250	 4260.00	 3879.27	-1214.07	 2839.59
     33.9510	 4315.00	 3892.02	-1171.82	 2835.13
     33.9770	 4368.00	 3905.55	-1132.35	 2830.66
     34.0030	 4418.00	 3919.91	-1096.71	 2826.19
     34.0290	 4371.00	 3935.15	-1158.95	 2821.73
     34.0550	 4408.00	 3951.32	-1138.12	 2817.26
     34.0810	 4405.00	 3968.47	-1158.27	 2812.79
     34.1070	 4372.00	 3986.65	-1209.45	 2808.33
     34.1330	 4443.00	 4005.93	-1157.73	 2803.86
     34.1590	 4640.00	 4026.37	 -981.17	 2799.39
     34.1850	 4573.00	 4048.03	-1069.83	 2794.93
     34.2110	 4549.00	 4070.99	-1116.79	 2790.46
     34.2370	 4615.00	 4095.31	-1075.11	 2785.99
     34.2630	 4592.00	 4121.08	-1123.88	 2781.53
     34.2890	 4657.00	 4148.38	-1086.18	 2777.06
     34.3150	 4710.00	 4177.29	-1062.09	 2772.59
     34.3410	 4698.00	 4207.89	-1104.69	 2768.13
     34.3670	 4725.00	 4240.30	-1110.10	 2763.66
     34.3930	 4772.00	 4274.60	-1097.40	 2759.19
     34.4190	 4813.00	 4310.89	-1092.69	 2754.73
     34.4450	 4945.00	 4349.27	 -999.07	 2750.26
     34.4710	 4923.00	 4389.85	-1061.65	 2745.79
     34.4970	 4916.00	 4432.73	-1111.53	 2741.33
     34.5230	 4913.00	 4478.01	-1159.81	 2736.86
     34.5490	 4891.00	 4525.80	-1229.60	 2732.39
     34.5750	 4885.00	 4576.19	-1285.99	 2727.93
     34.6010	 5068.00	 4629.28	-1156.08	 2723.46
     34.6270	 5020.00	 4685.13	-1259.93	 2718.99
     34.6530	 5092.00	 4743.84	-1246.64	 2714.53
     34.6790	 5008.00	 4805.44	-1392.24	 2710.06
     34.7050	 5061.00	 4869.96	-1403.76	 2705.59
     34.7310	 5290.00	 4937.39	-1242.19	 2701.13
     34.7570	 5278.00	 5007.72	-1324.53	 2696.66
     34.7830	 5249.00	 5080.87	-1426.67	 2692.19
     34.8090	 5182.00	 5156.69	-1569.49	 2687.73
     34.8350	 5219.00	 5235.01	-1610.81	 2683.26
     34.8610	 5298.00	 5315.57	-1612.37	 2678.79
     34.8870	 5338.00	 5398.05	-1654.85	 2674.33
     34.9130	 5258.00	 5482.02	-1818.82	 2669.86
     34.9390	 5237.00	 5566.96	-1924.76	 2665.39
     34.9650	 5364.00	 5652.28	-1883.08	 2660.93
     34.9910	 5475.00	 5737.26	-1857.07	 2656.46
     35.0170	 5505.00	 5821.09	-1910.89	 2651.99
     35.0430	 5457.00	 5902.84	-2040.64	 2647.53
     35.0690	 5367.00	 5981.54	-2209.34	 2643.06
     35.0950	 5271.00	 6056.12	-2379.92	 2638.59
     35.1210	 5332.00	 6125.47	-2388.27	 2634.13
     35.1470	 5440.00	 6188.48	-2343.28	 2629.66
     35.1730	 5420.00	 6244.07	-2418.87	 2625.19
     35.1990	 5438.00	 6291.21	-2448.01	 2620.73
     35.2250	 5453.00	 6328.97	-2470.77	 2616.26
     35.2510	 5435.00	 6356.58	-2516.39	 2611.79
     35.2770	 5438.00	 6373.46	-2530.26	 2607.33
     35.3030	 5353.00	 6379.21	-2621.01	 2602.86
     35.3290	 5326.00	 6373.67	-2642.47	 2598.39
     35.3550	 5393.00	 6356.94	-2558.74	 2593.93
     35.3810	 5377.00	 6329.32	-2547.12	 2589.46
     35.4070	 5376.00	 6291.35	-2510.15	 2584.99
     35.4330	 5350.00	 6243.75	-2488.55	 2580.53
     35.4590	 5326.00	 6187.40	-2456.21	 2576.06
     35.4850	 5340.00	 6123.30	-2378.10	 2571.59
     35.5110	 5276.00	 6052.51	-2371.31	 2567.13
     35.5370	 5243.00	 5976.17	-2327.97	 2562.66
     35.5630	 5270.00	 5895.37	-2220.17	 2558.19
     35.5890	 5278.00	 5811.21	-2128.01	 2553.73
     35.6150	 5220.00	 5724.71	-2099.52	 2549.26
     35.6410	 5216.00	 5636.85	-2015.65	 2544.79
     35.6670	 5132.00	 5548.44	-2011.24	 2540.33
     35.6930	 5033.00	 5460.27	-2022.07	 2535.86
     35.7190	 5050.00	 5373.00	-1917.80	 2531.39
     35.7450	 4947.00	 5287.21	-1935.01	 2526.93
     35.7710	 4883.00	 5203.34	-1915.14	 2522.46
     35.7970	 4825.00	 5121.77	-1891.58	 2517.99
     35.8230	 4769.00	 5042.83	-1868.63	 2513.53
     35.8490	 4762.00	 4966.73	-1799.53	 2509.06
     35.8750	 4752.00	 4893.64	-1736.44	 2504.59
     35.9010	 4751.00	 4823.67	-1667.47	 2500.13
     35.9270	 4718.00	 4756.90	-1633.71	 2495.66
     35.9530	 4677.00	 4693.38	-1611.18	 2491.19
     35.9790	 4564.00	 4633.07	-1663.88	 2486.73
     36.0050	 4581.00	 4575.99	-1589.79	 2482.26
     36.0310	 4595.00	 4522.07	-1521.88	 2477.79
     36.0570	 4498.00	 4471.29	-1568.09	 2473.33
     36.0830	 4443.00	 4423.56	-1575.36	 2468.86
     36.1090	 4544.00	 4378.81	-1429.61	 2464.39
     36.1350	 4551.00	 4336.97	-1380.77	 2459.93
     36.1610	 4400.00	 4297.96	-1492.77	 2455.46
     36.1870	 4360.00	 4261.70	-1496.50	 2450.99
     36.2130	 4495.00	 4228.09	-1327.89	 2446.53
     36.2390	 4357.00	 4197.06	-1434.86	 2442.06
     36.2650	 4254.00	 4168.53	-1509.33	 2437.59
     36.2910	 4249.00	 4142.40	-1488.20	 2433.13
     36.3170	 4209.00	 4118.59	-1504.40	 2428.66
     36.3430	 4237.00	 4097.02	-1454.82	 2424.19
     36.3690	 4271.00	 4077.59	-1401.39	 2419.73
     36.3950	 4321.00	 4060.21	-1334.01	 2415.26
     36.4210	 4243.00	 4044.77	-1396.57	 2410.79
     36.4470	 4120.00	 4031.17	-1505.97	 2406.33
     36.4730	 4215.00	 4019.29	-1399.09	 2401.86
     36.4990	 4232.00	 4009.04	-1371.84	 2397.44
     36.5250	 4244.00	 4000.39	-1351.19	 2393.16
     36.5510	 4086.00	 3993.02	-1501.82	 2388.89
     36.5770	 4177.00	 3986.76	-1404.57	 2384.61
     36.6030	 4114.00	 3981.43	-1462.23	 2380.33
     36.6290	 4118.00	 3976.81	-1453.61	 2376.05
     36.6550	 4136.00	 3972.67	-1431.47	 2371.78
     36.6810	 4027.00	 3968.76	-1536.57	 2367.50
     36.7070	 4051.00	 3964.84	-1508.64	 2363.22
     36.7330	 3964.00	 3960.64	-1591.44	 2358.94
     36.7590	 4170.00	 3955.89	-1380.69	 2354.66
     36.7850	 4131.00	 3950.32	-1414.12	 2350.39
     36.8110	 4108.00	 3943.68	-1430.48	 2346.11
     36.8370	 4006.00	 3935.74	-1524.54	 2341.83
     36.8630	 3855.00	 3926.29	-1666.09	 2337.55
     36.8890	 3925.00	 3915.16	-1584.96	 2333.28
     36.9150	 3967.00	 3902.23	-1530.03	 2329.00
     36.9410	 3811.00	 3887.40	-1671.21	 2324.72
     36.9670	 3863.00	 3870.66	-1602.47	 2320.44
     36.9930	 3948.00	 3852.02	-1498.82	 2316.17
     37.0190	 3843.00	 3831.54	-1583.34	 2311.89
     37.0450	 3770.00	 3809.32	-1634.13	 2307.61
     37.0710	 3729.00	 3785.53	-1651.33	 2303.33
     37.0970	 3713.00	 3760.33	-1642.13	 2299.06
     37.1230	 3653.00	 3733.92	-1675.72	 2294.78
     37.1490	 3704.00	 3706.50	-1597.30	 2290.50
     37.1750	 3674.00	 3678.30	-1599.10	 2286.22
     37.2010	 3571.00	 3649.53	-1673.33	 2281.94
     37.2270	 3531.00	 3620.38	-1684.18	 2277.67
     37.2530	 3453.00	 3591.06	-1732.86	 2273.39
     37.2790	 3450.00	 3561.75	-1706.55	 2269.11
     37.3050	 3465.00	 3532.58	-1662.38	 2264.83
     37.3310	 3473.00	 3503.71	-1625.51	 2260.56
     37.3570	 3433.00	 3475.25	-1637.05	 2256.28
     37.3830	 3299.00	 3447.30	-1743.10	 2252.00
     37.4090	 3316.00	 3419.92	-1698.73	 2247.72
     37.4350	 3288.00	 3393.20	-1700.00	 2243.45
     37.4610	 3303.00	 3367.17	-1658.97	 2239.17
     37.4870	 3273.00	 3341.86	-1663.66	 2234.89
     37.5130	 3211.00	 3317.30	-1701.10	 2230.61
     37.5390	 3174.00	 3293.48	-1714.29	 2226.33
     37.5650	 3155.00	 3270.43	-1710.23	 2222.06
     37.5910	 3102.00	 3248.13	-1740.93	 2217.78
     37.6170	 3059.00	 3226.56	-1762.36	 2213.50
     37.6430	 3114.00	 3205.72	-1686.52	 2209.22
     37.6690	 3088.00	 3185.59	-1692.39	 2204.95
     37.6950	 3025.00	 3166.14	-1735.94	 2200.67
     37.7210	 3011.00	 3147.35	-1731.16	 2196.39
     37.7470	 3031.00	 3129.20	-1693.00	 2192.11
     37.7730	 3050.00	 3111.67	-1656.47	 2187.84
     37.7990	 2981.00	 3094.72	-1708.52	 2183.56
     37.8250	 2977.00	 3078.33	-1696.13	 2179.28
     37.8510	 3033.00	 3062.47	-1624.27	 2175.00
     37.8770	 3002.00	 3047.14	-1639.94	 2170.73
     37.9030	 2969.00	 3032.28	-1658.08	 2166.45
     37.9290	 2897.00	 3017.90	-1715.70	 2162.17
     37.9550	 2859.00	 3003.95	-1739.75	 2157.89
     37.9810	 2921.00	 2990.43	-1664.23	 2153.62
     38.0070	 2882.00	 2977.31	-1690.11	 2149.34
     38.0330	 2847.00	 2964.57	-1712.37	 2145.06
     38.0590	 2924.00	 2952.19	-1623.00	 2140.78
     38.0850	 2925.00	 2940.16	-1609.97	 2136.50
     38.1110	 2838.00	 2928.46	-1685.26	 2132.23
     38.1370	 2863.00	 2917.07	-1648.87	 2127.95
     38.1630	 2795.00	 2905.98	-1705.78	 2123.67
     38.1890	 2856.00	 2895.16	-1633.97	 2119.39
     38.2150	 2863.00	 2884.62	-1616.42	 2115.12
     38.2410	 2890.00	 2874.34	-1579.14	 2110.84
     38.2670	 2936.00	 2864.29	-1523.09	 2106.56
     38.2930	 2890.00	 2854.49	-1559.29	 2102.28
     38.3190	 2808.00	 2844.90	-1631.70	 2098.01
     38.3450	 2847.00	 2835.52	-1583.32	 2093.73
     38.3710	 2879.00	 2826.35	-1542.15	 2089.45
     38.3970	 2791.00	 2817.37	-1621.17	 2085.17
     38.4230	 2751.00	 2808.57	-1652.37	 2080.90
     38.4490	 2753.00	 2799.95	-1641.75	 2076.62
     38.4750	 2772.00	 2791.50	-1614.30	 2072.34
     38.5010	 2773.00	 2783.21	-1605.01	 2068.06
     38.5270	 2806.00	 2775.07	-1563.87	 2063.78
     38.5530	 2780.00	 2767.09	-1581.89	 2059.51
     38.5790	 2788.00	 2759.24	-1566.04	 2055.23
     38.6050	 2751.00	 2751.53	-1595.33	 2050.95
     38.6310	 2740.00	 2743.95	-1598.75	 2046.67
     38.6570	 2813.00	 2736.50	-1518.30	 2042.40
     38.6830	 2688.00	 2729.17	-1635.97	 2038.12
     38.7090	 2676.00	 2721.96	-1640.76	 2033.84
     38.7350	 2710.00	 2714.85	-1599.66	 2029.56
     38.7610	 2779.00	 2707.86	-1523.66	 2025.29
     38.7870	 2640.00	 2700.97	-1655.77	 2021.01
     38.8130	 2693.00	 2694.18	-1595.98	 2016.73
     38.8390	 2667.00	 2687.49	-1615.29	 2012.45
     38.8650	 2663.00	 2680.89	-1612.69	 2008.17
     38.8910	 2722.00	 2674.38	-1547.19	 2003.90
     38.9170	 2720.00	 2667.97	-1542.77	 1999.62
     38.9430	 2695.00	 2661.63	-1561.43	 1995.34
     38.9690	 2605.00	 2655.38	-1645.18	 1991.06
     38.9950	 2710.00	 2649.21	-1534.01	 1986.79
     39.0210	 2687.00	 2643.12	-1550.92	 1982.51
     39.0470	 2682.00	 2637.10	-1549.90	 1978.23
     39.0730	 2569.00	 2631.16	-1656.96	 1973.95
     39.0990	 2651.00	 2625.29	-1569.09	 1969.68
     39.1250	 2628.00	 2619.49	-1586.29	 1965.40
     39.1510	 2633.00	 2613.76	-1575.56	 1961.12
     39.1770	 2593.00	 2608.09	-1609.89	 1956.84
     39.2030	 2569.00	 2602.49	-1628.29	 1952.57
     39.2290	 2641.00	 2596.95	-1550.76	 1948.29
     39.2550	 2698.00	 2591.48	-1488.28	 1944.01
     39.2810	 2693.00	 2586.07	-1487.87	 1939.73
     39.3070	 2719.00	 2580.72	-1456.52	 1935.46
     39.3330	 2597.00	 2575.42	-1573.22	 1931.18
     39.3590	 2601.00	 2570.19	-1563.99	 1926.90
     39.3850	 2572.00	 2565.01	-1587.81	 1922.62
     39.4110	 2515.00	 2559.89	-1639.69	 1918.34
     39.4370	 2596.00	 2554.82	-1553.62	 1914.07
     39.4630	 2590.00	 2549.81	-1554.61	 1909.79
     39.4890	 2624.00	 2544.85	-1515.65	 1905.51
     39.5150	 2585.00	 2543.26	-1553.06	 1904.55
     39.5410	 2493.00	 2541.94	-1643.74	 1903.80
     39.5670	 2526.00	 2540.68	-1609.48	 1903.06
     39.5930	 2568.00	 2539.46	-1566.26	 1902.31
     39.6190	 2527.00	 2538.30	-1606.10	 1901.56
     39.6450	 2603.00	 2537.19	-1528.99	 1900.82
     39.6710	 2613.00	 2536.13	-1517.93	 1900.07
     39.6970	 2516.00	 2535.12	-1613.92	 1899.33
     39.7230	 2562.00	 2534.16	-1566.96	 1898.58
     39.7490	 2530.00	 2533.26	-1598.06	 1897.83
     39.7750	 2642.00	 2532.40	-1485.20	 1897.09
     39.8010	 2592.00	 2531.60	-1534.40	 1896.34
     39.8270	 2514.00	 2530.85	-1611.65	 1895.59
     39.8530	 2546.00	 2530.14	-1578.95	 1894.85
     39.8790	 2522.00	 2529.50	-1602.30	 1894.10
     39.9050	 2475.00	 2528.90	-1648.70	 1893.36
     39.9310	 2511.00	 2528.35	-1612.15	 1892.61
     39.9570	 2531.00	 2527.86	-1591.66	 1891.86
     39.9830	 2549.00	 2527.42	-1573.22	 1891.12
     40.0090	 2515.00	 2527.04	-1606.84	 1890.37
     40.0350	 2531.00	 2526.71	-1590.51	 1889.63
     40.0610	 2576.00	 2526.43	-1545.23	 1888.88
     40.0870	 2541.00	 2526.21	-1580.01	 1888.13
     40.1130	 2540.00	 2526.05	-1580.85	 1887.39
     40.1390	 2482.00	 2525.94	-1638.74	 1886.64
     40.1650	 2456.00	 2525.90	-1664.70	 1885.90
     40.1910	 2469.00	 2525.91	-1651.71	 1885.15
     40.2170	 2516.00	 2525.98	-1604.78	 1884.40
     40.2430	 2536.00	 2526.12	-1584.92	 1883.66
     40.2690	 2526.00	 2526.32	-1595.12	 1882.91
     40.2950	 2514.00	 2526.58	-1607.38	 1882.16
     40.3210	 2504.00	 2526.91	-1617.71	 1881.42
     40.3470	 2531.00	 2527.31	-1591.11	 1880.67
     40.3730	 2528.00	 2527.77	-1594.57	 1879.93
     40.3990	 2497.00	 2528.31	-1626.11	 1879.18
     40.4250	 2466.00	 2528.92	-1657.72	 1878.43
     40.4510	 2485.00	 2529.60	-1639.40	 1877.69
     40.4770	 2512.00	 2530.36	-1613.17	 1876.94
     40.5030	 2491.00	 2531.21	-1635.01	 1876.20
     40.5290	 2508.00	 2532.13	-1618.93	 1875.45
     40.5550	 2514.00	 2533.13	-1613.93	 1874.70
     40.5810	 2485.00	 2534.22	-1644.03	 1873.96
     40.6070	 2463.00	 2535.41	-1667.21	 1873.21
     40.6330	 2442.00	 2536.68	-1689.48	 1872.47
     40.6590	 2422.00	 2538.05	-1710.85	 1871.72
     40.6850	 2432.00	 2539.51	-1702.31	 1870.97
     40.7110	 2430.00	 2541.08	-1705.88	 1870.23
     40.7370	 2458.00	 2542.76	-1679.56	 1869.48
     40.7630	 2480.00	 2544.54	-1659.34	 1868.73
     40.7890	 2537.00	 2546.44	-1604.24	 1867.99
     40.8150	 2483.00	 2548.45	-1660.25	 1867.24
     40.8410	 2457.00	 2550.59	-1688.39	 1866.50
     40.8670	 2455.00	 2552.86	-1692.66	 1865.75
     40.8930	 2514.00	 2555.25	-1636.05	 1865.00
     40.9190	 2438.00	 2557.79	-1714.59	 1864.26
     40.9450	 2475.00	 2560.47	-1680.27	 1863.51
     40.9710	 2540.00	 2563.29	-1618.09	 1862.77
     40.9970	 2497.00	 2566.28	-1664.08	 1862.02
     41.0230	 2479.00	 2569.42	-1685.22	 1861.27
     41.0490	 2451.00	 2572.74	-1716.54	 1860.53
     41.0750	 2518.00	 2576.23	-1653.03	 1859.78
     41.1010	 2539.00	 2579.90	-1635.71	 1859.04
     41.1270	 2546.00	 2584.39	-1633.19	 1858.90
     41.1530	 2565.00	 2589.11	-1618.91	 1858.81
     41.1790	 2468.00	 2594.05	-1720.85	 1858.71
     41.2050	 2460.00	 2599.21	-1734.01	 1858.62
     41.2310	 2482.00	 2604.59	-1717.40	 1858.52
     41.2570	 2555.00	 2610.23	-1650.03	 1858.43
     41.2830	 2455.00	 2616.12	-1755.92	 1858.33
     41.3090	 2480.00	 2622.28	-1737.08	 1858.23
     41.3350	 2476.00	 2628.72	-1747.52	 1858.14
     41.3610	 2487.00	 2635.46	-1743.26	 1858.04
     41.3870	 2452.00	 2642.50	-1785.31	 1857.95
     41.4130	 2519.00	 2649.88	-1725.68	 1857.85
     41.4390	 2548.00	 2657.60	-1704.41	 1857.76
     41.4650	 2530.00	 2665.69	-1730.49	 1857.66
     41.4910	 2488.00	 2674.16	-1780.96	 1857.57
     41.5170	 2457.00	 2683.03	-1820.83	 1857.47
     41.5430	 2513.00	 2692.33	-1774.13	 1857.37
     41.5690	 2400.00	 2702.07	-1896.88	 1857.28
     41.5950	 2451.00	 2712.29	-1856.09	 1857.18
     41.6210	 2465.00	 2723.01	-1852.81	 1857.09
     41.6470	 2494.00	 2734.25	-1835.05	 1856.99
     41.6730	 2460.00	 2746.05	-1880.85	 1856.90
     41.6990	 2452.00	 2758.44	-1901.24	 1856.80
     41.7250	 2570.00	 2771.44	-1796.24	 1856.70
     41.7510	 2447.00	 2785.10	-1932.90	 1856.61
     41.7770	 2574.00	 2799.44	-1820.24	 1856.51
     41.8030	 2485.00	 2814.52	-1924.32	 1856.42
     41.8290	 2531.00	 2830.36	-1894.17	 1856.32
     41.8550	 2467.00	 2847.02	-1974.82	 1856.23
     41.8810	 2435.00	 2864.53	-2024.33	 1856.13
     41.9070	 2601.00	 2882.94	-1876.75	 1856.03
     41.9330	 2419.00	 2902.31	-2078.11	 1855.94
     41.9590	 2572.00	 2922.67	-1945.47	 1855.84
     41.9850	 2559.00	 2944.09	-1979.89	 1855.75
     42.0110	 2527.00	 2966.61	-2034.42	 1855.65
     42.0370	 2505.00	 2990.30	-2080.10	 1855.56
     42.0630	 2538.00	 3015.19	-2071.99	 1855.46
     42.0890	 2603.00	 3041.36	-2033.16	 1855.36
     42.1150	 2676.00	 3068.85	-1987.66	 1855.27
     42.1410	 2744.00	 3097.72	-1948.53	 1855.17
     42.1670	 2748.00	 3128.01	-1974.82	 1855.08
     42.1930	 2865.00	 3159.78	-1889.58	 1854.98
     42.2190	 2908.00	 3193.06	-1879.86	 1854.89
     42.2450	 3024.00	 3227.88	-1798.68	 1854.79
     42.2710	 3142.00	 3264.27	-1717.07	 1854.69
     42.2970	 3104.00	 3302.24	-1793.04	 1854.60
     42.3230	 3162.00	 3341.77	-1774.57	 1854.50
     42.3490	 3302.00	 3382.85	-1675.65	 1854.41
     42.3750	 3443.00	 3425.42	-1577.22	 1854.31
     42.4010	 3526.00	 3469.42	-1538.22	 1854.22
     42.4270	 3573.00	 3514.73	-1536.53	 1854.12
     42.4530	 3679.00	 3561.20	-1477.00	 1854.02
     42.4790	 3766.00	 3608.66	-1437.46	 1853.93
     42.5050	 3882.00	 3656.88	-1369.68	 1853.83
     42.5310	 4022.00	 3705.57	-1278.37	 1853.74
     42.5570	 4072.00	 3754.39	-1277.19	 1853.64
     42.5830	 4310.00	 3802.99	-1087.79	 1853.55
     42.6090	 4442.00	 3850.91	-1003.71	 1853.45
     42.6350	 4507.00	 3897.68	 -985.48	 1853.36
     42.6610	 4663.00	 3942.76	 -874.56	 1853.26
     42.6870	 4771.00	 3985.60	 -809.40	 1853.16
     42.7130	 4800.00	 4025.62	 -820.42	 1853.07
     42.7390	 4879.00	 4062.23	 -778.03	 1852.97
     42.7650	 4979.00	 4094.85	 -710.65	 1852.88
     42.7910	 5100.00	 4122.94	 -617.74	 1852.78
     42.8170	 5142.00	 4146.01	 -598.81	 1852.69
     42.8430	 5175.00	 4163.62	 -583.43	 1852.59
     42.8690	 5191.00	 4175.46	 -579.27	 1852.49
     42.8950	 5246.00	 4181.29	 -530.10	 1852.40
     42.9210	 5265.00	 4181.00	 -510.80	 1852.30
     42.9470	 5278.00	 4174.59	 -491.39	 1852.21
     42.9730	 5296.00	 4162.18	 -460.98	 1852.11
     42.9990	 5250.00	 4144.01	 -488.81	 1852.02
     43.0250	 5201.00	 4120.42	 -514.22	 1851.92
     43.0510	 5069.00	 4091.82	 -617.62	 1851.82
     43.0770	 5002.00	 4058.73	 -651.53	 1851.73
     43.1030	 5052.00	 4021.66	 -564.46	 1851.63
     43.1290	 4971.00	 3981.20	 -605.00	 1851.54
     43.1550	 4785.00	 3937.93	 -747.73	 1851.44
     43.1810	 4697.00	 3892.42	 -790.22	 1851.35
     43.2070	 4623.00	 3845.22	 -817.03	 1851.25
     43.2330	 4509.00	 3796.86	 -882.66	 1851.15
     43.2590	 4389.00	 3747.82	 -953.62	 1851.06
     43.2850	 4168.00	 3698.52	-1125.32	 1850.96
     43.3110	 4124.00	 3649.35	-1120.15	 1850.87
     43.3370	 4008.00	 3600.63	-1187.43	 1850.77
     43.3630	 3840.00	 3552.65	-1307.45	 1850.68
     43.3890	 3819.00	 3505.63	-1281.43	 1850.58
     43.4150	 3646.00	 3459.76	-1408.56	 1850.48
     43.4410	 3454.00	 3415.18	-1555.98	 1850.39
     43.4670	 3389.00	 3372.02	-1577.82	 1850.29
     43.4930	 3335.00	 3330.33	-1590.13	 1850.20
     43.5190	 3228.00	 3290.17	-1656.98	 1850.10
     43.5450	 3143.00	 3251.58	-1703.38	 1850.01
     43.5710	 3010.00	 3214.56	-1799.36	 1849.91
     43.5970	 2969.00	 3179.09	-1804.89	 1849.81
     43.6230	 2894.00	 3145.16	-1845.96	 1849.72
     43.6490	 2891.00	 3112.74	-1816.54	 1849.62
     43.6750	 2732.00	 3081.79	-1944.59	 1849.53
     43.7010	 2652.00	 3052.26	-1995.06	 1849.43
     43.7270	 2618.00	 3024.10	-2000.90	 1849.34
     43.7530	 2618.00	 2997.26	-1974.06	 1849.24
     43.7790	 2619.00	 2971.70	-1947.50	 1849.15
     43.8050	 2572.00	 2947.35	-1970.15	 1849.05
     43.8310	 2484.00	 2924.15	-2034.95	 1848.95
     43.8570	 2586.00	 2902.06	-1910.86	 1848.86
     43.8830	 2513.00	 2881.03	-1962.83	 1848.76
     43.9090	 2531.00	 2860.99	-1924.79	 1848.67
     43.9350	 2435.00	 2841.90	-2001.70	 1848.57
     43.9610	 2433.00	 2823.71	-1985.51	 1848.48
     43.9870	 2484.00	 2806.38	-1917.18	 1848.38
     44.0130	 2425.00	 2789.86	-1959.66	 1848.28
     44.0390	 2466.00	 2774.11	-1902.91	 1848.19
     44.0650	 2469.00	 2759.08	-1884.88	 1848.09
     44.0910	 2520.00	 2744.74	-1819.54	 1848.00
     44.1170	 2523.00	 2731.05	-1802.85	 1847.90
     44.1430	 2499.00	 2717.98	-1813.78	 1847.81
     44.1690	 2426.00	 2705.50	-1874.30	 1847.71
     44.1950	 2485.00	 2693.56	-1803.36	 1847.61
     44.2210	 2490.00	 2682.15	-1786.96	 1847.52
     44.2470	 2454.00	 2671.24	-1812.04	 1847.42
     44.2730	 2558.00	 2660.80	-1697.60	 1847.33
     44.2990	 2532.00	 2650.80	-1713.60	 1847.23
     44.3250	 2427.00	 2641.23	-1809.03	 1847.14
     44.3510	 2473.00	 2632.05	-1753.85	 1847.04
     44.3770	 2443.00	 2623.25	-1775.05	 1846.94
     44.4030	 2512.00	 2614.82	-1697.62	 1846.85
     44.4290	 2449.00	 2606.72	-1752.52	 1846.75
     44.4550	 2423.00	 2598.95	-1770.75	 1846.66
     44.4810	 2421.00	 2591.49	-1765.29	 1846.56
     44.5070	 2486.00	 2584.32	-1693.12	 1846.47
     44.5330	 2452.00	 2577.42	-1720.22	 1846.37
     44.5590	 2382.00	 2570.79	-1783.59	 1846.27
     44.5850	 2416.00	 2564.41	-1743.22	 1846.18
     44.6110	 2389.00	 2558.28	-1764.08	 1846.08
     44.6370	 2374.00	 2552.36	-1773.16	 1845.99
     44.6630	 2388.00	 2546.67	-1753.47	 1845.89
     44.6890	 2430.00	 2541.18	-1705.98	 1845.80
     44.7150	 2428.00	 2535.89	-1702.69	 1845.70
     44.7410	 2492.00	 2530.78	-1633.58	 1845.60
     44.7670	 2445.00	 2525.86	-1675.66	 1845.51
     44.7930	 2452.00	 2521.10	-1663.91	 1845.41
     44.8190	 2464.00	 2516.51	-1647.31	 1845.32
     44.8450	 2424.00	 2512.08	-1682.88	 1845.22
     44.8710	 2468.00	 2507.79	-1634.59	 1845.13
     44.8970	 2462.00	 2503.64	-1636.45	 1845.03
     44.9230	 2509.00	 2499.63	-1585.44	 1844.94
     44.9490	 2397.00	 2495.76	-1693.56	 1844.84
     44.9750	 2354.00	 2492.00	-1732.80	 1844.74
     45.0010	 2352.00	 2488.37	-1731.17	 1844.65
     45.0270	 2388.00	 2484.85	-1691.65	 1844.55
     45.0530	 2450.00	 2481.43	-1626.24	 1844.46
     45.0790	 2383.00	 2478.13	-1689.93	 1844.36
     45.1050	 2361.00	 2474.92	-1708.72	 1844.27
     45.1310	 2394.00	 2471.81	-1672.61	 1844.17
     45.1570	 2393.00	 2468.80	-1670.60	 1844.07
     45.1830	 2390.00	 2465.87	-1670.67	 1843.98
     45.2090	 2400.00	 2463.03	-1657.83	 1843.88
     45.2350	 2418.00	 2460.27	-1637.07	 1843.79
     45.2610	 2383.00	 2457.58	-1669.39	 1843.69
     45.2870	 2386.00	 2454.98	-1663.78	 1843.60
     45.3130	 2438.00	 2452.45	-1609.25	 1843.50
     45.3390	 2389.00	 2449.98	-1655.79	 1843.40
     45.3650	 2387.00	 2447.59	-1655.39	 1843.31
     45.3910	 2437.00	 2445.26	-1603.06	 1843.21
     45.4170	 2392.00	 2442.99	-1645.79	 1843.12
     45.4430	 2362.00	 2440.96	-1673.76	 1843.20
     45.4690	 2357.00	 2439.49	-1677.29	 1843.78
     45.4950	 2328.00	 2438.08	-1704.88	 1844.36
     45.5210	 2340.00	 2436.72	-1691.52	 1844.95
     45.5470	 2340.00	 2435.41	-1690.21	 1845.53
     45.5730	 2357.00	 2434.15	-1671.95	 1846.11
     45.5990	 2365.00	 2432.94	-1662.74	 1846.70
     45.6250	 2369.00	 2431.78	-1657.58	 1847.28
     45.6510	 2385.00	 2430.66	-1640.46	 1847.86
     45.6770	 2345.00	 2429.59	-1679.39	 1848.44
     45.7030	 2383.00	 2428.56	-1640.36	 1849.03
     45.7290	 2398.00	 2427.57	-1624.37	 1849.61
     45.7550	 2385.00	 2426.62	-1636.42	 1850.19
     45.7810	 2380.00	 2425.71	-1640.51	 1850.78
     45.8070	 2304.00	 2424.83	-1715.63	 1851.36
     45.8330	 2359.00	 2423.99	-1659.79	 1851.94
     45.8590	 2362.00	 2423.18	-1655.99	 1852.53
     45.8850	 2338.00	 2422.41	-1679.21	 1853.11
     45.9110	 2385.00	 2421.67	-1631.48	 1853.69
     45.9370	 2410.00	 2420.97	-1605.77	 1854.27
     45.9630	 2430.00	 2420.29	-1585.09	 1854.86
     45.9890	 2421.00	 2419.64	-1593.44	 1855.44
     46.0150	 2418.00	 2419.02	-1595.82	 1856.02
     46.0410	 2424.00	 2418.43	-1589.23	 1856.61
     46.0670	 2334.00	 2417.87	-1678.67	 1857.19
     46.0930	 2360.00	 2417.33	-1652.13	 1857.77
     46.1190	 2377.00	 2416.81	-1634.61	 1858.36
     46.1450	 2290.00	 2416.32	-1721.13	 1858.94
     46.1710	 2353.00	 2415.86	-1657.66	 1859.52
     46.1970	 2415.00	 2415.42	-1595.22	 1860.11
     46.2230	 2438.00	 2415.00	-1571.80	 1860.69
     46.2490	 2333.00	 2414.60	-1676.40	 1861.27
     46.2750	 2294.00	 2414.22	-1715.03	 1861.85
     46.3010	 2365.00	 2413.87	-1643.67	 1862.44
     46.3270	 2398.00	 2413.53	-1610.33	 1863.02
     46.3530	 2417.00	 2413.22	-1591.02	 1863.60
     46.3790	 2371.00	 2412.92	-1636.72	 1864.19
     46.4050	 2346.00	 2412.64	-1661.44	 1864.77
     46.4310	 2350.00	 2412.38	-1657.18	 1865.35
     46.4570	 2388.00	 2412.14	-1618.94	 1865.94
     46.4830	 2419.00	 2411.91	-1587.71	 1866.52
     46.5090	 2436.00	 2411.70	-1570.50	 1867.10
     46.5350	 2340.00	 2411.50	-1666.31	 1867.69
     46.5610	 2370.00	 2411.33	-1636.13	 1868.27
     46.5870	 2436.00	 2411.16	-1569.96	 1868.85
     46.6130	 2264.00	 2411.01	-1741.81	 1869.43
     46.6390	 2322.00	 2410.88	-1683.68	 1870.02
     46.6650	 2273.00	 2410.76	-1732.56	 1870.60
     46.6910	 2362.00	 2410.65	-1643.45	 1871.18
     46.7170	 2306.00	 2410.56	-1699.36	 1871.77
     46.7430	 2395.00	 2410.48	-1610.28	 1872.35
     46.7690	 2337.00	 2410.41	-1668.22	 1872.93
     46.7950	 2402.00	 2410.36	-1603.16	 1873.52
     46.8210	 2362.00	 2410.32	-1643.12	 1874.10
     46.8470	 2383.00	 2410.29	-1622.09	 1874.68
     46.8730	 2397.00	 2410.27	-1608.07	 1875.27
     46.8990	 2443.00	 2410.26	-1562.06	 1875.85
     46.9250	 2372.00	 2410.26	-1633.06	 1876.43
     46.9510	 2308.00	 2410.28	-1697.08	 1877.01
     46.9770	 2332.00	 2410.30	-1673.10	 1877.60
     47.0030	 2343.00	 2410.33	-1662.14	 1878.18
     47.0290	 2348.00	 2410.38	-1657.18	 1878.76
     47.0550	 2414.00	 2410.43	-1591.23	 1879.35
     47.0810	 2330.00	 2410.50	-1675.30	 1879.93
     47.1070	 2397.00	 2410.57	-1608.37	 1880.51
     47.1330	 2439.00	 2410.65	-1566.45	 1881.10
     47.1590	 2308.00	 2410.74	-1697.54	 1881.68
     47.1850	 2349.00	 2410.84	-1656.64	 1882.26
     47.2110	 2255.00	 2410.95	-1750.75	 1882.84
     47.2370	 2333.00	 2411.07	-1672.87	 1883.43
     47.2630	 2284.00	 2411.19	-1721.99	 1884.01
     47.2890	 2360.00	 2411.32	-1646.12	 1884.59
     47.3150	 2356.00	 2411.46	-1650.27	 1885.18
     47.3410	 2355.00	 2411.61	-1651.41	 1885.76
     47.3670	 2381.00	 2411.77	-1625.57	 1886.34
     47.3930	 2323.00	 2411.93	-1683.73	 1886.93
     47.4190	 2366.00	 2412.10	-1640.90	 1887.51
     47.4450	 2339.00	 2412.28	-1668.08	 1888.09
     47.4710	 2335.00	 2412.46	-1672.26	 1888.68
     47.4970	 2414.00	 2412.65	-1593.45	 1889.26
     47.5230	 2392.00	 2412.85	-1615.65	 1889.84
     47.5490	 2401.00	 2413.05	-1606.85	 1890.42
     47.5750	 2385.00	 2413.26	-1623.06	 1891.01
     47.6010	 2348.00	 2413.48	-1660.28	 1891.59
     47.6270	 2270.00	 2413.70	-1738.50	 1892.17
     47.6530	 2282.00	 2413.93	-1726.73	 1892.76
     47.6790	 2278.00	 2414.16	-1730.96	 1893.34
     47.7050	 2297.00	 2414.40	-1712.20	 1893.92
     47.7310	 2363.00	 2414.65	-1646.45	 1894.51
     47.7570	 2390.00	 2414.90	-1619.70	 1895.09
     47.7830	 2426.00	 2415.15	-1583.95	 1895.67
     47.8090	 2358.00	 2415.41	-1652.22	 1896.26
     47.8350	 2351.00	 2415.68	-1659.48	 1896.84
     47.8610	 2363.00	 2415.95	-1647.75	 1897.42
     47.8870	 2351.00	 2416.23	-1660.03	 1898.00
     47.9130	 2340.00	 2416.51	-1671.31	 1898.59
     47.9390	 2372.00	 2416.80	-1639.60	 1899.17
     47.9650	 2392.00	 2417.09	-1619.89	 1899.75
     47.9910	 2345.00	 2417.38	-1667.19	 1900.34
     48.0170	 2354.00	 2417.68	-1658.49	 1900.92
     48.0430	 2374.00	 2417.99	-1638.79	 1901.50
     48.0690	 2325.00	 2418.30	-1688.10	 1902.09
     48.0950	 2338.00	 2418.45	-1675.25	 1902.51
     48.1210	 2319.00	 2417.96	-1693.76	 1902.28
     48.1470	 2304.00	 2417.47	-1708.27	 1902.05
     48.1730	 2324.00	 2416.99	-1687.79	 1901.83
     48.1990	 2323.00	 2416.51	-1688.31	 1901.60
     48.2250	 2368.00	 2416.03	-1642.83	 1901.37
     48.2510	 2366.00	 2415.56	-1644.36	 1901.14
     48.2770	 2361.00	 2415.09	-1648.89	 1900.92
     48.3030	 2383.00	 2414.62	-1626.43	 1900.69
     48.3290	 2384.00	 2414.16	-1624.96	 1900.46
     48.3550	 2399.00	 2413.70	-1609.51	 1900.23
     48.3810	 2345.00	 2413.25	-1663.05	 1900.01
     48.4070	 2304.00	 2412.80	-1703.60	 1899.78
     48.4330	 2314.00	 2412.35	-1693.15	 1899.55
     48.4590	 2320.00	 2411.91	-1686.71	 1899.32
     48.4850	 2433.00	 2411.47	-1573.27	 1899.09
     48.5110	 2469.00	 2411.03	-1536.83	 1898.87
     48.5370	 2323.00	 2410.60	-1682.40	 1898.64
     48.5630	 2353.00	 2410.17	-1651.97	 1898.41
     48.5890	 2400.00	 2409.74	-1604.54	 1898.18
     48.6150	 2345.00	 2409.32	-1659.12	 1897.96
     48.6410	 2400.00	 2408.90	-1603.70	 1897.73
     48.6670	 2421.00	 2408.48	-1582.28	 1897.50
     48.6930	 2384.00	 2408.06	-1618.87	 1897.27
     48.7190	 2401.00	 2407.65	-1601.45	 1897.05
     48.7450	 2407.00	 2407.24	-1595.04	 1896.82
     48.7710	 2430.00	 2406.84	-1571.64	 1896.59
     48.7970	 2431.00	 2406.43	-1570.24	 1896.36
     48.8230	 2377.00	 2406.03	-1623.83	 1896.13
     48.8490	 2340.00	 2405.64	-1660.44	 1895.91
     48.8750	 2320.00	 2405.24	-1680.04	 1895.68
     48.9010	 2402.00	 2404.85	-1597.65	 1895.45
     48.9270	 2368.00	 2404.46	-1631.26	 1895.22
     48.9530	 2386.00	 2404.07	-1612.87	 1895.00
     48.9790	 2422.00	 2403.69	-1576.49	 1894.77
     49.0050	 2460.00	 2403.31	-1538.11	 1894.54
     49.0310	 2336.00	 2402.93	-1661.73	 1894.31
     49.0570	 2386.00	 2402.55	-1611.35	 1894.08
     49.0830	 2408.00	 2402.18	-1588.98	 1893.86
     49.1090	 2467.00	 2401.80	-1529.61	 1893.63
     49.1350	 2361.00	 2401.44	-1635.24	 1893.40
     49.1610	 2414.00	 2401.07	-1581.87	 1893.17
     49.1870	 2486.00	 2400.70	-1509.51	 1892.95
     49.2130	 2374.00	 2400.34	-1621.14	 1892.72
     49.2390	 2381.00	 2399.98	-1613.78	 1892.49
     49.2650	 2404.00	 2399.62	-1590.43	 1892.26
     49.2910	 2360.00	 2399.27	-1634.07	 1892.04
     49.3170	 2325.00	 2398.92	-1668.72	 1891.81
     49.3430	 2404.00	 2398.56	-1589.37	 1891.58
     49.3690	 2404.00	 2398.22	-1589.02	 1891.35
     49.3950	 2383.00	 2397.87	-1609.67	 1891.12
     49.4210	 2496.00	 2397.52	-1496.33	 1890.90
     49.4470	 2507.00	 2397.18	-1484.98	 1890.67
     49.4730	 2463.00	 2396.84	-1528.64	 1890.44
     49.4990	 2477.00	 2396.50	-1514.31	 1890.21
     49.5250	 2480.00	 2396.17	-1510.97	 1889.99
     49.5510	 2525.00	 2395.83	-1465.64	 1889.76
     49.5770	 2470.00	 2395.50	-1520.30	 1889.53
     49.6030	 2402.00	 2395.17	-1587.97	 1889.30
     49.6290	 2457.00	 2394.84	-1532.65	 1889.08
     49.6550	 2334.00	 2394.52	-1655.32	 1888.85
     49.6810	 2404.00	 2394.19	-1585.00	 1888.62
     49.7070	 2443.00	 2393.87	-1545.67	 1888.39
     49.7330	 2437.00	 2393.55	-1551.35	 1888.16
     49.7590	 2496.00	 2393.23	-1492.03	 1887.94
     49.7850	 2478.00	 2392.92	-1509.72	 1887.71
     49.8110	 2540.00	 2392.60	-1447.40	 1887.48
     49.8370	 2365.00	 2392.29	-1622.09	 1887.25
     49.8630	 2433.00	 2391.98	-1553.78	 1887.03
     49.8890	 2498.00	 2391.67	-1488.47	 1886.80
     49.9150	 2495.00	 2391.36	-1491.17	 1886.57
     49.9410	 2509.00	 2391.06	-1476.86	 1886.34
     49.9670	 2498.00	 2390.76	-1487.56	 1886.12
     49.9930	 2495.00	 2390.45	-1490.26	 1885.89
     50.0190	 2543.00	 2390.15	-1441.96	 1885.66
     50.0450	 2569.00	 2389.86	-1415.66	 1885.43
     50.0710	 2518.00	 2389.56	-1466.36	 1885.20
     50.0970	 2461.00	 2389.27	-1523.07	 1884.98
     50.1230	 2450.00	 2388.97	-1533.78	 1884.75
     50.1490	 2460.00	 2388.68	-1523.48	 1884.52
     50.1750	 2482.00	 2388.39	-1501.20	 1884.29
     50.2010	 2433.00	 2388.11	-1549.91	 1884.07
     50.2270	 2394.00	 2387.82	-1588.62	 1883.84
     50.2530	 2426.00	 2387.54	-1556.34	 1883.61
     50.2790	 2481.00	 2387.26	-1501.06	 1883.38
     50.3050	 2452.00	 2386.98	-1529.78	 1883.16
     50.3310	 2422.00	 2386.70	-1559.50	 1882.93
     50.3570	 2443.00	 2386.42	-1538.22	 1882.70
     50.3830	 2492.00	 2386.15	-1488.95	 1882.47
     50.4090	 2500.00	 2385.87	-1480.67	 1882.24
     50.4350	 2425.00	 2385.60	-1555.40	 1882.02
     50.4610	 2417.00	 2385.33	-1563.13	 1881.79
     50.4870	 2428.00	 2385.06	-1551.86	 1881.56
     50.5130	 2462.00	 2384.80	-1517.60	 1881.33
     50.5390	 2406.00	 2384.53	-1573.33	 1881.11
     50.5650	 2429.00	 2384.27	-1550.07	 1880.88
     50.5910	 2488.00	 2384.01	-1490.81	 1880.65
     50.6170	 2464.00	 2383.75	-1514.55	 1880.42
     50.6430	 2430.00	 2383.49	-1548.29	 1880.20
     50.6690	 2388.00	 2383.23	-1590.03	 1879.97
     50.6950	 2354.00	 2382.98	-1623.78	 1879.74
     50.7210	 2387.00	 2382.72	-1590.53	 1879.51
     50.7470	 2478.00	 2382.47	-1499.27	 1879.28
     50.7730	 2477.00	 2382.22	-1500.03	 1879.06
     50.7990	 2440.00	 2381.98	-1536.78	 1878.83
     50.8250	 2478.00	 2381.73	-1498.53	 1878.60
     50.8510	 2486.00	 2381.49	-1490.29	 1878.37
     50.8770	 2444.00	 2381.24	-1532.04	 1878.15
     50.9030	 2370.00	 2381.00	-1605.80	 1877.92
     50.9290	 2336.00	 2380.76	-1639.56	 1877.69
     50.9550	 2400.00	 2380.53	-1575.33	 1877.46
     50.9810	 2390.00	 2380.29	-1585.09	 1877.23
     51.0070	 2340.00	 2380.06	-1634.86	 1877.01
     51.0330	 2371.00	 2379.83	-1603.63	 1876.78
     51.0590	 2389.00	 2379.59	-1585.40	 1876.55
     51.0850	 2403.00	 2379.37	-1571.17	 1876.32
     51.1110	 2398.00	 2379.14	-1575.94	 1876.10
     51.1370	 2395.00	 2378.92	-1578.72	 1875.87
     51.1630	 2438.00	 2378.69	-1535.49	 1875.64
     51.1890	 2418.00	 2378.47	-1555.27	 1875.41
     51.2150	 2349.00	 2378.25	-1624.05	 1875.19
     51.2410	 2394.00	 2378.03	-1578.84	 1874.96
     51.2670	 2430.00	 2377.82	-1542.62	 1874.73
     51.2930	 2416.00	 2377.60	-1556.41	 1874.50
     51.3190	 2381.00	 2377.39	-1591.19	 1874.27
     51.3450	 2297.00	 2377.18	-1674.98	 1874.05
     51.3710	 2348.00	 2376.98	-1623.78	 1873.82
     51.3970	 2379.00	 2376.77	-1592.57	 1873.59
     51.4230	 2376.00	 2376.57	-1595.37	 1873.36
     51.4490	 2285.00	 2376.36	-1686.16	 1873.14
     51.4750	 2408.00	 2376.16	-1562.96	 1872.91
     51.5010	 2342.00	 2375.96	-1628.77	 1872.68
     51.5270	 2330.00	 2375.77	-1640.57	 1872.45
     51.5530	 2370.00	 2375.57	-1600.38	 1872.23
     51.5790	 2373.00	 2375.38	-1597.18	 1872.00
     51.6050	 2334.00	 2375.19	-1635.99	 1871.77
     51.6310	 2352.00	 2375.00	-1617.81	 1871.54
     51.6570	 2313.00	 2374.82	-1656.62	 1871.31
     51.6830	 2300.00	 2374.64	-1669.44	 1871.09
     51.7090	 2361.00	 2374.45	-1608.26	 1870.86
     51.7350	 2379.00	 2374.28	-1590.08	 1870.63
     51.7610	 2421.00	 2374.10	-1547.90	 1870.40
     51.7870	 2333.00	 2373.92	-1635.72	 1870.18
     51.8130	 2271.00	 2373.75	-1697.55	 1869.95
     51.8390	 2353.00	 2373.58	-1615.38	 1869.72
     51.8650	 2350.00	 2373.41	-1618.21	 1869.49
     51.8910	 2361.00	 2373.25	-1607.05	 1869.27
     51.9170	 2315.00	 2373.08	-1652.89	 1869.04
     51.9430	 2411.00	 2372.92	-1556.73	 1868.81
     51.9690	 2318.00	 2372.77	-1649.57	 1868.58
     51.9950	 2347.00	 2372.61	-1620.41	 1868.35
     52.0210	 2324.00	 2372.46	-1643.26	 1868.13
     52.0470	 2307.00	 2372.31	-1660.11	 1867.90
     52.0730	 2444.00	 2372.16	-1522.96	 1867.67
     52.0990	 2345.00	 2372.01	-1621.81	 1867.44
     52.1250	 2433.00	 2371.87	-1533.67	 1867.22
     52.1510	 2340.00	 2371.73	-1626.53	 1866.99
     52.1770	 2386.00	 2371.59	-1580.40	 1866.76
     52.2030	 2470.00	 2371.46	-1496.26	 1866.53
     52.2290	 2389.00	 2371.33	-1577.13	 1866.31
     52.2550	 2290.00	 2371.20	-1676.00	 1866.08
     52.2810	 2331.00	 2371.07	-1634.88	 1865.85
     52.3070	 2332.00	 2370.95	-1633.75	 1865.62
     52.3330	 2349.00	 2370.83	-1616.63	 1865.39
     52.3590	 2373.00	 2370.72	-1592.52	 1865.17
     52.3850	 2316.00	 2370.60	-1649.40	 1864.94
     52.4110	 2392.00	 2370.49	-1573.29	 1864.71
     52.4370	 2374.00	 2370.39	-1591.19	 1864.48
     52.4630	 2328.00	 2370.28	-1637.08	 1864.26
     52.4890	 2342.00	 2370.18	-1622.98	 1864.03
     52.5150	 2363.00	 2370.09	-1601.89	 1863.80
     52.5410	 2394.00	 2369.99	-1570.80	 1863.57
     52.5670	 2229.00	 2369.90	-1735.71	 1863.34
     52.5930	 2271.00	 2369.82	-1693.62	 1863.12
     52.6190	 2310.00	 2369.74	-1654.54	 1862.89
     52.6450	 2301.00	 2369.66	-1663.46	 1862.66
     52.6710	 2295.00	 2369.59	-1669.39	 1862.43
     52.6970	 2386.00	 2369.51	-1578.32	 1862.21
     52.7230	 2354.00	 2369.45	-1610.25	 1861.98
     52.7490	 2349.00	 2369.39	-1615.19	 1861.75
     52.7750	 2337.00	 2369.33	-1627.13	 1861.52
     52.8010	 2298.00	 2369.28	-1666.08	 1861.30
     52.8270	 2320.00	 2369.23	-1644.03	 1861.07
     52.8530	 2315.00	 2369.18	-1648.98	 1860.84
     52.8790	 2336.00	 2369.14	-1627.94	 1860.61
     52.9050	 2380.00	 2369.11	-1583.91	 1860.39
     52.9310	 2282.00	 2369.08	-1681.88	 1860.16
     52.9570	 2273.00	 2369.05	-1690.85	 1859.93
     52.9830	 2231.00	 2369.03	-1732.83	 1859.70
     53.0090	 2237.00	 2369.02	-1726.82	 1859.47
     53.0350	 2317.00	 2369.01	-1646.81	 1859.25
     53.0610	 2336.00	 2369.00	-1627.80	 1859.02
     53.0870	 2311.00	 2369.00	-1652.80	 1858.79
     53.1130	 2298.00	 2369.01	-1665.81	 1858.56
     53.1390	 2301.00	 2369.02	-1662.82	 1858.34
     53.1650	 2246.00	 2369.04	-1717.84	 1858.11
     53.1910	 2261.00	 2369.07	-1702.87	 1857.88
     53.2170	 2314.00	 2369.10	-1649.90	 1857.65
     53.2430	 2362.00	 2369.13	-1601.94	 1857.42
     53.2690	 2334.00	 2369.18	-1629.98	 1857.20
     53.2950	 2271.00	 2369.23	-1693.03	 1856.97
     53.3210	 2216.00	 2369.29	-1748.09	 1856.74
     53.3470	 2231.00	 2369.30	-1733.10	 1856.51
     53.3730	 2283.00	 2369.37	-1681.17	 1856.29
     53.3990	 2248.00	 2369.42	-1716.22	 1856.06
     53.4250	 2210.00	 2369.50	-1754.30	 1855.82
     53.4510	 2259.00	 2369.00	-1704.80	 1855.00
     53.4770	 2260.00	 2368.50	-1703.30	 1854.17
     53.5030	 2275.00	 2368.01	-1687.81	 1853.34
     53.5290	 2308.00	 2367.53	-1654.34	 1852.51
     53.5550	 2269.00	 2367.06	-1692.86	 1851.69
     53.5810	 2255.00	 2366.60	-1706.40	 1850.86
     53.6070	 2249.00	 2366.15	-1711.95	 1850.03
     53.6330	 2257.00	 2365.71	-1703.51	 1849.20
     53.6590	 2259.00	 2365.28	-1701.08	 1848.37
     53.6850	 2224.00	 2364.85	-1735.66	 1847.55
     53.7110	 2250.00	 2364.44	-1709.24	 1846.72
     53.7370	 2295.00	 2364.04	-1663.84	 1845.89
     53.7630	 2287.00	 2363.65	-1671.45	 1845.06
     53.7890	 2277.00	 2363.28	-1681.08	 1844.24
     53.8150	 2257.00	 2362.91	-1700.71	 1843.41
     53.8410	 2270.00	 2362.56	-1687.36	 1842.58
     53.8670	 2291.00	 2362.22	-1666.02	 1841.75
     53.8930	 2221.00	 2361.89	-1735.69	 1840.92
     53.9190	 2242.00	 2361.58	-1714.38	 1840.10
     53.9450	 2321.00	 2361.28	-1635.08	 1839.27
     53.9710	 2323.00	 2360.99	-1632.79	 1838.44
     53.9970	 2290.00	 2360.72	-1665.52	 1837.61
     54.0230	 2298.00	 2360.47	-1657.27	 1836.79
     54.0490	 2296.00	 2360.23	-1659.03	 1835.96
     54.0750	 2300.00	 2360.00	-1654.80	 1835.13
     54.1010	 2214.00	 2359.80	-1740.60	 1834.30
     54.1270	 2229.00	 2359.61	-1725.41	 1833.47
     54.1530	 2273.00	 2359.44	-1681.24	 1832.65
     54.1790	 2324.00	 2359.29	-1630.09	 1831.82
     54.2050	 2289.00	 2359.16	-1664.96	 1830.99
     54.2310	 2296.00	 2359.05	-1657.85	 1830.16
     54.2570	 2335.00	 2358.96	-1618.76	 1829.34
     54.2830	 2341.00	 2358.89	-1612.70	 1828.51
     54.3090	 2291.00	 2358.85	-1662.65	 1827.68
     54.3350	 2310.00	 2358.83	-1643.63	 1826.85
     54.3610	 2306.00	 2358.83	-1647.63	 1826.03
     54.3870	 2367.00	 2358.86	-1586.66	 1825.20
     54.4130	 2369.00	 2358.92	-1584.72	 1824.37
     54.4390	 2357.00	 2359.00	-1596.80	 1823.54
     54.4650	 2299.00	 2359.11	-1654.91	 1822.71
     54.4910	 2286.00	 2359.25	-1668.05	 1821.89
     54.5170	 2391.00	 2359.42	-1563.23	 1821.06
     54.5430	 2413.00	 2359.63	-1541.43	 1820.23
     54.5690	 2318.00	 2359.87	-1636.67	 1819.40
     54.5950	 2285.00	 2360.14	-1669.94	 1818.58
     54.6210	 2333.00	 2360.45	-1622.25	 1817.75
     54.6470	 2287.00	 2360.79	-1668.59	 1816.92
     54.6730	 2398.00	 2361.18	-1557.98	 1816.09
     54.6990	 2345.00	 2361.61	-1611.41	 1815.26
     54.7250	 2428.00	 2362.07	-1528.88	 1814.44
     54.7510	 2363.00	 2362.59	-1594.39	 1813.61
     54.7770	 2356.00	 2363.15	-1601.95	 1812.78
     54.8030	 2316.00	 2363.76	-1642.56	 1811.95
     54.8290	 2350.00	 2364.42	-1609.22	 1811.13
     54.8550	 2337.00	 2365.13	-1622.93	 1810.30
     54.8810	 2329.00	 2365.90	-1631.70	 1809.47
     54.9070	 2439.00	 2366.73	-1522.53	 1808.64
     54.9330	 2373.00	 2367.62	-1589.42	 1807.81
     54.9590	 2385.00	 2368.57	-1578.37	 1806.99
     54.9850	 2418.00	 2369.59	-1546.39	 1806.16
     55.0110	 2387.00	 2370.68	-1578.48	 1805.33
     55.0370	 2461.00	 2371.84	-1505.65	 1804.50
     55.0630	 2421.00	 2373.08	-1546.88	 1803.68
     55.0890	 2356.00	 2374.40	-1613.21	 1802.85
     55.1150	 2341.00	 2375.81	-1629.61	 1802.02
     55.1410	 2384.00	 2377.30	-1588.10	 1801.19
     55.1670	 2396.00	 2378.89	-1577.69	 1800.37
     55.1930	 2444.00	 2380.58	-1531.38	 1799.54
     55.2190	 2440.00	 2382.37	-1537.17	 1798.71
     55.2450	 2377.00	 2384.26	-1602.06	 1797.88
     55.2710	 2437.00	 2386.27	-1544.07	 1797.05
     55.2970	 2398.00	 2388.40	-1585.20	 1796.23
     55.3230	 2507.00	 2390.66	-1478.46	 1795.40
     55.3490	 2476.00	 2393.05	-1511.85	 1794.57
     55.3750	 2483.00	 2395.58	-1507.38	 1793.74
     55.4010	 2455.00	 2398.25	-1538.05	 1792.92
     55.4270	 2429.00	 2401.08	-1566.88	 1792.09
     55.4530	 2381.00	 2404.07	-1617.88	 1791.26
     55.4790	 2454.00	 2407.24	-1548.04	 1790.43
     55.5050	 2473.00	 2410.58	-1532.38	 1789.60
     55.5310	 2412.00	 2414.12	-1596.92	 1788.78
     55.5570	 2442.00	 2417.85	-1570.65	 1787.95
     55.5830	 2525.00	 2421.79	-1491.59	 1787.12
     55.6090	 2508.00	 2425.96	-1512.76	 1786.29
     55.6350	 2442.00	 2430.36	-1583.16	 1785.47
     55.6610	 2459.00	 2435.00	-1570.80	 1784.64
     55.6870	 2475.00	 2439.90	-1559.70	 1783.81
     55.7130	 2496.00	 2445.07	-1543.87	 1782.98
     55.7390	 2516.00	 2450.52	-1529.32	 1782.15
     55.7650	 2534.00	 2456.27	-1517.07	 1781.33
     55.7910	 2502.00	 2462.33	-1555.13	 1780.50
     55.8170	 2453.00	 2468.72	-1610.52	 1779.67
     55.8430	 2453.00	 2475.44	-1617.24	 1778.84
     55.8690	 2532.00	 2482.52	-1545.32	 1778.02
     55.8950	 2546.00	 2489.97	-1538.77	 1777.19
     55.9210	 2510.00	 2497.79	-1582.59	 1776.36
     55.9470	 2490.00	 2506.01	-1610.81	 1775.53
     55.9730	 2545.00	 2514.64	-1564.44	 1774.71
     55.9990	 2526.00	 2523.68	-1592.48	 1773.88
     56.0250	 2520.00	 2533.15	-1607.95	 1773.05
     56.0510	 2561.00	 2543.04	-1576.84	 1772.22
     56.0770	 2567.00	 2553.37	-1581.17	 1771.39
     56.1030	 2639.00	 2564.13	-1519.93	 1770.57
     56.1290	 2612.00	 2575.31	-1558.11	 1769.74
     56.1550	 2532.00	 2586.91	-1649.71	 1768.91
     56.1810	 2549.00	 2598.91	-1644.71	 1768.08
     56.2070	 2591.00	 2611.28	-1615.08	 1767.26
     56.2330	 2593.00	 2623.99	-1625.79	 1766.43
     56.2590	 2533.00	 2637.00	-1698.80	 1765.60
     56.2850	 2584.00	 2650.26	-1661.06	 1764.77
     56.3110	 2689.00	 2663.70	-1569.50	 1763.94
     56.3370	 2702.00	 2677.24	-1570.04	 1763.12
     56.3630	 2678.00	 2690.80	-1607.60	 1762.29
     56.3890	 2673.00	 2704.28	-1626.08	 1761.46
     56.4150	 2675.00	 2717.56	-1637.36	 1760.63
     56.4410	 2651.00	 2730.52	-1674.33	 1759.81
     56.4670	 2661.00	 2743.03	-1676.83	 1758.98
     56.4930	 2624.00	 2754.95	-1725.75	 1758.15
     56.5190	 2557.00	 2766.12	-1803.92	 1757.32
     56.5450	 2550.00	 2776.40	-1821.20	 1756.49
     56.5710	 2588.00	 2785.64	-1792.44	 1755.67
     56.5970	 2627.00	 2793.70	-1761.51	 1754.84
     56.6230	 2693.00	 2800.47	-1702.27	 1754.01
     56.6490	 2633.00	 2805.81	-1767.61	 1753.18
     56.6750	 2618.00	 2809.64	-1786.44	 1752.36
     56.7010	 2653.00	 2811.88	-1753.68	 1751.53
     56.7270	 2643.00	 2812.50	-1764.30	 1750.70
     56.7530	 2673.00	 2811.46	-1733.26	 1749.87
     56.7790	 2665.00	 2808.78	-1738.58	 1749.05
     56.8050	 2644.00	 2804.49	-1755.29	 1748.22
     56.8310	 2602.00	 2798.65	-1791.46	 1747.39
     56.8570	 2594.00	 2791.35	-1792.16	 1746.56
     56.8830	 2659.00	 2782.69	-1718.50	 1745.73
     56.9090	 2754.00	 2772.79	-1613.60	 1744.91
     56.9350	 2690.00	 2761.78	-1666.59	 1744.08
     56.9610	 2625.00	 2749.81	-1719.61	 1743.25
     56.9870	 2607.00	 2737.01	-1724.81	 1742.42
     57.0130	 2576.00	 2723.53	-1742.33	 1741.60
     57.0390	 2668.00	 2709.51	-1636.31	 1740.77
     57.0650	 2671.00	 2695.09	-1618.89	 1739.94
     57.0910	 2632.00	 2680.39	-1643.20	 1739.11
     57.1170	 2673.00	 2665.54	-1587.34	 1738.28
     57.1430	 2640.00	 2650.64	-1605.44	 1737.46
     57.1690	 2708.00	 2635.78	-1522.58	 1736.63
     57.1950	 2612.00	 2621.05	-1603.85	 1735.80
     57.2210	 2651.00	 2606.52	-1550.32	 1734.97
     57.2470	 2706.00	 2592.25	-1481.05	 1734.15
     57.2730	 2727.00	 2578.28	-1446.08	 1733.32
     57.2990	 2663.00	 2564.66	-1496.46	 1732.49
     57.3250	 2657.00	 2551.42	-1489.22	 1731.66
     57.3510	 2625.00	 2538.57	-1508.37	 1730.83
     57.3770	 2583.00	 2526.14	-1537.94	 1730.01
     57.4030	 2603.00	 2514.14	-1505.94	 1729.18
     57.4290	 2626.00	 2502.57	-1471.37	 1728.35
     57.4550	 2557.00	 2491.42	-1529.22	 1727.52
     57.4810	 2672.00	 2480.70	-1403.51	 1726.70
     57.5070	 2512.00	 2470.41	-1553.21	 1725.87
     57.5330	 2541.00	 2460.53	-1514.33	 1725.04
     57.5590	 2593.00	 2451.04	-1452.85	 1724.21
     57.5850	 2625.00	 2441.95	-1411.75	 1723.39
     57.6110	 2579.00	 2433.24	-1449.04	 1722.56
     57.6370	 2585.00	 2424.89	-1434.69	 1721.73
     57.6630	 2544.00	 2416.90	-1467.70	 1720.90
     57.6890	 2645.00	 2409.23	-1359.04	 1720.07
     57.7150	 2554.00	 2401.90	-1442.70	 1719.25
     57.7410	 2639.00	 2394.87	-1350.67	 1718.42
     57.7670	 2568.00	 2388.14	-1414.94	 1717.59
     57.7930	 2661.00	 2381.69	-1315.49	 1716.76
     57.8190	 2616.00	 2375.51	-1354.31	 1715.94
     57.8450	 2652.00	 2369.59	-1312.39	 1715.11
     57.8710	 2487.00	 2363.91	-1471.71	 1714.28
     57.8970	 2489.00	 2358.46	-1464.26	 1713.45
     57.9230	 2509.00	 2353.24	-1439.04	 1712.62
     57.9490	 2534.00	 2348.22	-1409.02	 1711.80
     57.9750	 2511.00	 2343.41	-1427.21	 1710.97
     58.0010	 2477.00	 2338.79	-1456.59	 1710.14
     58.0270	 2485.00	 2334.35	-1444.15	 1709.31
     58.0530	 2510.00	 2330.08	-1414.88	 1708.49
     58.0790	 2419.00	 2325.98	-1501.78	 1707.66
     58.1050	 2528.00	 2322.03	-1388.84	 1706.83
     58.1310	 2548.00	 2318.24	-1365.04	 1706.00
     58.1570	 2500.00	 2314.59	-1409.39	 1705.17
     58.1830	 2438.00	 2311.07	-1467.87	 1704.35
     58.2090	 2412.00	 2307.68	-1490.48	 1703.52
     58.2350	 2433.00	 2304.42	-1466.22	 1702.69
     58.2610	 2431.00	 2301.27	-1465.07	 1701.86
     58.2870	 2453.00	 2298.24	-1440.04	 1701.04
     58.3130	 2408.00	 2295.31	-1482.11	 1700.21
     58.3390	 2464.00	 2292.49	-1423.29	 1699.38
     58.3650	 2414.00	 2289.76	-1470.56	 1698.55
     58.3910	 2395.00	 2287.13	-1486.93	 1697.73
     58.4170	 2427.00	 2284.59	-1452.39	 1696.90
     58.4430	 2409.00	 2282.13	-1467.94	 1696.07
     58.4690	 2403.00	 2279.76	-1471.56	 1695.24
     58.4950	 2349.00	 2277.47	-1523.27	 1694.41
     58.5210	 2298.00	 2275.26	-1572.06	 1693.59
     58.5470	 2349.00	 2273.12	-1518.92	 1692.76
     58.5730	 2402.00	 2271.04	-1463.85	 1691.93
     58.5990	 2395.00	 2269.04	-1468.84	 1691.10
     58.6250	 2362.00	 2267.11	-1499.91	 1690.28
     58.6510	 2293.00	 2265.23	-1567.04	 1689.45
     58.6770	 2298.00	 2263.42	-1560.22	 1688.62
     58.7030	 2360.00	 2261.67	-1496.47	 1687.79
     58.7290	 2354.00	 2259.98	-1500.78	 1686.96
     58.7550	 2324.00	 2258.34	-1529.14	 1686.14
     58.7810	 2317.00	 2256.76	-1534.56	 1685.31
     58.8070	 2352.00	 2255.23	-1498.03	 1684.48
     58.8330	 2337.00	 2253.75	-1511.55	 1683.65
     58.8590	 2289.00	 2252.32	-1558.12	 1682.83
     58.8850	 2271.00	 2250.94	-1574.74	 1682.00
     58.9110	 2292.00	 2249.60	-1552.40	 1681.17
     58.9370	 2331.00	 2248.32	-1512.12	 1680.34
     58.9630	 2326.00	 2247.07	-1515.88	 1679.51
     58.9890	 2346.00	 2245.88	-1494.68	 1678.69
     59.0150	 2288.00	 2244.72	-1551.53	 1677.86
     59.0410	 2300.00	 2243.61	-1538.42	 1677.03
     59.0670	 2283.00	 2242.55	-1554.35	 1676.20
     59.0930	 2277.00	 2241.52	-1559.32	 1675.38
     59.1190	 2249.00	 2240.53	-1586.34	 1674.55
     59.1450	 2235.00	 2239.59	-1599.39	 1673.72
     59.1710	 2137.00	 2238.69	-1696.49	 1672.89
     59.1970	 2176.00	 2237.82	-1656.62	 1672.06
     59.2230	 2277.00	 2237.00	-1554.80	 1671.24
     59.2490	 2281.00	 2236.21	-1550.01	 1670.41
     59.2750	 2222.00	 2235.47	-1608.27	 1669.58
     59.3010	 2194.00	 2234.76	-1635.56	 1668.75
     59.3270	 2181.00	 2234.09	-1647.89	 1667.93
     59.3530	 2253.00	 2233.46	-1575.26	 1667.10
     59.3790	 2324.00	 2232.87	-1503.67	 1666.27
     59.4050	 2175.00	 2232.32	-1652.12	 1665.44
     59.4310	 2241.00	 2231.81	-1585.61	 1664.62
     59.4570	 2188.00	 2231.33	-1638.13	 1663.79
     59.4830	 2213.00	 2230.90	-1612.70	 1662.96
     59.5090	 2190.00	 2230.51	-1635.31	 1662.13
     59.5350	 2175.00	 2230.15	-1649.95	 1661.30
     59.5610	 2165.00	 2229.84	-1659.64	 1660.48
     59.5870	 2242.00	 2229.57	-1582.37	 1659.65
     59.6130	 2224.00	 2229.34	-1600.14	 1658.82
     59.6390	 2172.00	 2229.15	-1651.95	 1657.99
     59.6650	 2215.00	 2229.01	-1608.81	 1657.17
     59.6910	 2242.00	 2228.91	-1581.71	 1656.34
     59.7170	 2200.00	 2228.85	-1623.66	 1655.51
     59.7430	 2169.00	 2228.84	-1654.64	 1654.68
     59.7690	 2178.00	 2228.88	-1645.68	 1653.85
     59.7950	 2153.00	 2228.96	-1670.76	 1653.03
     59.8210	 2142.00	 2229.10	-1681.90	 1652.20
     59.8470	 2135.00	 2229.28	-1689.08	 1651.37
     59.8730	 2097.00	 2229.51	-1727.31	 1650.54
     59.8990	 2144.00	 2229.79	-1680.59	 1649.72
     59.9250	 2126.00	 2230.13	-1698.93	 1648.89
     59.9510	 2186.00	 2230.52	-1639.33	 1648.06
     59.9770	 2117.00	 2230.97	-1708.77	 1647.23
     60.0030	 2189.00	 2231.48	-1637.28	 1646.40
     60.0290	 2247.00	 2232.05	-1579.85	 1645.58
     60.0550	 2223.00	 2232.68	-1604.48	 1644.75
     60.0810	 2156.00	 2233.37	-1672.17	 1643.92
     60.1070	 2148.00	 2234.13	-1680.93	 1643.09
     60.1330	 2158.00	 2234.96	-1671.76	 1642.27
     60.1590	 2129.00	 2235.86	-1701.66	 1641.44
     60.1850	 2118.00	 2236.83	-1713.63	 1640.61
     60.2110	 2172.00	 2237.87	-1660.68	 1639.78
     60.2370	 2143.00	 2239.00	-1690.80	 1638.96
     60.2630	 2177.00	 2240.21	-1658.01	 1638.13
     60.2890	 2204.00	 2241.50	-1632.30	 1637.30
     60.3150	 2180.00	 2242.88	-1657.68	 1636.47
     60.3410	 2173.00	 2244.35	-1666.15	 1635.64
     60.3670	 2128.00	 2245.91	-1712.71	 1634.82
     60.3930	 2118.00	 2247.58	-1724.38	 1633.99
     60.4190	 2174.00	 2249.35	-1670.15	 1633.16
     60.4450	 2145.00	 2251.22	-1701.02	 1632.33
     60.4710	 2112.00	 2253.21	-1736.01	 1631.51
     60.4970	 2185.00	 2255.31	-1665.11	 1630.68
     60.5230	 2174.00	 2257.54	-1678.34	 1629.85
     60.5490	 2154.00	 2260.04	-1700.84	 1629.17
     60.5750	 2152.00	 2262.89	-1705.69	 1628.71
     60.6010	 2141.00	 2265.88	-1719.68	 1628.24
     60.6270	 2153.00	 2269.01	-1710.81	 1627.78
     60.6530	 2130.00	 2272.30	-1737.10	 1627.31
     60.6790	 2134.00	 2275.75	-1736.55	 1626.85
     60.7050	 2151.00	 2279.36	-1723.16	 1626.38
     60.7310	 2126.00	 2283.15	-1751.95	 1625.92
     60.7570	 2181.00	 2287.12	-1700.92	 1625.45
     60.7830	 2192.00	 2291.29	-1694.09	 1624.99
     60.8090	 2171.00	 2295.65	-1719.46	 1624.52
     60.8350	 2164.00	 2300.23	-1731.04	 1624.06
     60.8610	 2164.00	 2305.04	-1735.84	 1623.59
     60.8870	 2148.00	 2310.07	-1756.87	 1623.13
     60.9130	 2152.00	 2315.35	-1758.16	 1622.66
     60.9390	 2188.00	 2320.89	-1727.69	 1622.20
     60.9650	 2153.00	 2326.70	-1768.50	 1621.74
     60.9910	 2151.00	 2332.80	-1776.60	 1621.27
     61.0170	 2114.00	 2339.19	-1819.99	 1620.81
     61.0430	 2095.00	 2345.90	-1845.70	 1620.34
     61.0690	 2143.00	 2352.94	-1804.74	 1619.88
     61.0950	 2168.00	 2360.33	-1787.13	 1619.41
     61.1210	 2169.00	 2368.08	-1793.88	 1618.95
     61.1470	 2201.00	 2376.21	-1770.01	 1618.48
     61.1730	 2193.00	 2384.75	-1786.55	 1618.02
     61.1990	 2150.00	 2393.70	-1838.51	 1617.55
     61.2250	 2165.00	 2403.10	-1832.91	 1617.09
     61.2510	 2128.00	 2412.97	-1879.77	 1616.62
     61.2770	 2146.00	 2423.32	-1872.12	 1616.16
     61.3030	 2197.00	 2434.18	-1831.98	 1615.69
     61.3290	 2205.00	 2445.57	-1835.37	 1615.23
     61.3550	 2170.00	 2457.51	-1882.31	 1614.76
     61.3810	 2164.00	 2470.04	-1900.84	 1614.30
     61.4070	 2234.00	 2483.16	-1843.96	 1613.83
     61.4330	 2295.00	 2496.91	-1796.71	 1613.37
     61.4590	 2315.00	 2511.30	-1791.11	 1612.90
     61.4850	 2258.00	 2526.37	-1863.17	 1612.44
     61.5110	 2305.00	 2542.11	-1831.91	 1611.97
     61.5370	 2394.00	 2558.56	-1759.36	 1611.51
     61.5630	 2386.00	 2575.73	-1784.53	 1611.05
     61.5890	 2406.00	 2593.62	-1782.42	 1610.58
     61.6150	 2460.00	 2612.24	-1747.04	 1610.12
     61.6410	 2490.00	 2631.59	-1736.39	 1609.65
     61.6670	 2505.00	 2651.65	-1741.45	 1609.19
     61.6930	 2578.00	 2672.43	-1689.23	 1608.72
     61.7190	 2629.00	 2693.88	-1659.68	 1608.26
     61.7450	 2617.00	 2715.97	-1693.77	 1607.79
     61.7710	 2631.00	 2738.64	-1702.44	 1607.33
     61.7970	 2715.00	 2761.84	-1641.64	 1606.86
     61.8230	 2773.00	 2785.48	-1607.28	 1606.40
     61.8490	 2835.00	 2809.46	-1569.26	 1605.93
     61.8750	 2878.00	 2833.66	-1550.46	 1605.47
     61.9010	 2954.00	 2857.95	-1498.75	 1605.00
     61.9270	 2967.00	 2882.16	-1509.96	 1604.54
     61.9530	 2922.00	 2906.13	-1578.93	 1604.07
     61.9790	 3024.00	 2929.65	-1500.45	 1603.61
     62.0050	 3067.00	 2952.51	-1480.32	 1603.14
     62.0310	 3188.00	 2974.50	-1381.30	 1602.68
     62.0570	 3209.00	 2995.37	-1381.17	 1602.21
     62.0830	 3202.00	 3014.87	-1407.67	 1601.75
     62.1090	 3275.00	 3032.78	-1352.58	 1601.28
     62.1350	 3311.00	 3048.86	-1332.66	 1600.82
     62.1610	 3414.00	 3062.88	-1243.68	 1600.36
     62.1870	 3408.00	 3074.65	-1261.45	 1599.89
     62.2130	 3491.00	 3083.99	-1187.79	 1599.43
     62.2390	 3614.00	 3090.76	-1071.56	 1598.96
     62.2650	 3585.00	 3094.84	-1104.65	 1598.50
     62.2910	 3542.00	 3096.19	-1148.99	 1598.03
     62.3170	 3528.00	 3094.77	-1161.57	 1597.57
     62.3430	 3635.00	 3090.59	-1050.39	 1597.10
     62.3690	 3638.00	 3083.73	-1040.53	 1596.64
     62.3950	 3628.00	 3074.28	-1041.08	 1596.17
     62.4210	 3615.00	 3062.38	-1042.18	 1595.71
     62.4470	 3656.00	 3048.19	 -986.99	 1595.24
     62.4730	 3608.00	 3031.91	-1018.71	 1594.78
     62.4990	 3543.00	 3013.74	-1065.54	 1594.31
     62.5250	 3485.00	 2993.92	-1103.72	 1593.85
     62.5510	 3515.00	 2972.67	-1052.47	 1593.38
     62.5770	 3455.00	 2950.23	-1090.03	 1592.92
     62.6030	 3441.00	 2926.83	-1080.63	 1592.45
     62.6290	 3248.00	 2902.69	-1249.49	 1591.99
     62.6550	 3177.00	 2878.01	-1295.82	 1591.52
     62.6810	 3172.00	 2853.01	-1275.81	 1591.06
     62.7070	 3129.00	 2827.86	-1293.66	 1590.60
     62.7330	 2992.00	 2802.71	-1405.51	 1590.13
     62.7590	 3003.00	 2777.71	-1369.51	 1589.67
     62.7850	 2998.00	 2752.99	-1349.79	 1589.20
     62.8110	 2856.00	 2728.65	-1467.45	 1588.74
     62.8370	 2803.00	 2704.78	-1496.58	 1588.27
     62.8630	 2722.00	 2681.46	-1554.26	 1587.81
     62.8890	 2695.00	 2658.74	-1558.54	 1587.34
     62.9150	 2654.00	 2636.66	-1577.46	 1586.88
     62.9410	 2638.00	 2615.26	-1572.06	 1586.41
     62.9670	 2578.00	 2594.57	-1611.37	 1585.95
     62.9930	 2412.00	 2574.59	-1757.39	 1585.48
     63.0190	 2438.00	 2555.33	-1712.13	 1585.02
     63.0450	 2445.00	 2536.79	-1686.59	 1584.55
     63.0710	 2387.00	 2518.96	-1726.76	 1584.09
     63.0970	 2408.00	 2501.83	-1688.63	 1583.62
     63.1230	 2397.00	 2485.39	-1683.20	 1583.16
     63.1490	 2335.00	 2469.63	-1729.43	 1582.69
     63.1750	 2295.00	 2454.51	-1754.31	 1582.23
     63.2010	 2232.00	 2440.03	-1802.83	 1581.76
     63.2270	 2309.00	 2426.15	-1711.95	 1581.30
     63.2530	 2271.00	 2412.86	-1736.66	 1580.83
     63.2790	 2277.00	 2400.14	-1717.94	 1580.37
     63.3050	 2298.00	 2387.95	-1684.75	 1579.91
     63.3310	 2301.00	 2376.28	-1670.09	 1579.44
     63.3570	 2315.00	 2365.11	-1644.91	 1578.98
     63.3830	 2273.00	 2354.41	-1676.21	 1578.51
     63.4090	 2264.00	 2344.16	-1674.97	 1578.05
     63.4350	 2231.00	 2334.35	-1698.15	 1577.58
     63.4610	 2275.00	 2324.94	-1644.74	 1577.12
     63.4870	 2276.00	 2315.92	-1634.72	 1576.65
     63.5130	 2237.00	 2307.28	-1665.08	 1576.19
     63.5390	 2269.00	 2298.99	-1624.79	 1575.72
     63.5650	 2259.00	 2291.03	-1626.83	 1575.26
     63.5910	 2256.00	 2283.40	-1622.20	 1574.79
     63.6170	 2291.00	 2276.07	-1579.88	 1574.33
     63.6430	 2293.00	 2269.04	-1570.84	 1573.86
     63.6690	 2222.00	 2262.28	-1635.08	 1573.40
     63.6950	 2215.00	 2255.78	-1635.58	 1572.93
     63.7210	 2264.00	 2249.53	-1580.33	 1572.47
     63.7470	 2235.00	 2243.52	-1603.32	 1572.00
     63.7730	 2165.00	 2237.74	-1667.54	 1571.54
     63.7990	 2105.00	 2232.17	-1721.97	 1571.07
     63.8250	 2136.00	 2226.81	-1685.61	 1570.61
     63.8510	 2210.00	 2221.64	-1606.44	 1570.14
     63.8770	 2201.00	 2216.66	-1610.46	 1569.68
     63.9030	 2164.00	 2211.86	-1642.66	 1569.22
     63.9290	 2131.00	 2207.23	-1671.03	 1568.75
     63.9550	 2125.00	 2202.75	-1672.56	 1568.29
     63.9810	 2145.00	 2198.44	-1648.24	 1567.82
     64.0070	 2184.00	 2194.27	-1605.07	 1567.36
     64.0330	 2228.00	 2190.23	-1557.04	 1566.89
     64.0590	 2218.00	 2186.34	-1563.14	 1566.43
     64.0850	 2228.00	 2182.57	-1549.37	 1565.96
     64.1110	 2252.00	 2178.92	-1521.72	 1565.50
     64.1370	 2165.00	 2175.39	-1605.20	 1565.03
     64.1630	 2115.00	 2171.98	-1651.78	 1564.57
     64.1890	 2176.00	 2168.67	-1587.47	 1564.10
     64.2150	 2184.00	 2165.46	-1576.26	 1563.64
     64.2410	 2190.00	 2162.35	-1567.15	 1563.17
     64.2670	 2159.00	 2159.34	-1595.14	 1562.71
     64.2930	 2147.00	 2156.41	-1604.21	 1562.24
     64.3190	 2181.00	 2153.57	-1567.38	 1561.78
     64.3450	 2131.00	 2150.82	-1614.62	 1561.31
     64.3710	 2142.00	 2148.15	-1600.95	 1560.85
     64.3970	 2131.00	 2145.55	-1609.35	 1560.38
     64.4230	 2137.00	 2143.03	-1600.83	 1559.92
     64.4490	 2152.00	 2140.58	-1583.38	 1559.45
     64.4750	 2116.00	 2138.19	-1616.99	 1558.99
     64.5010	 2097.00	 2135.88	-1633.68	 1558.53
     64.5270	 2160.00	 2133.62	-1568.42	 1558.06
     64.5530	 2178.00	 2131.43	-1548.23	 1557.60
     64.5790	 2139.00	 2129.30	-1585.10	 1557.13
     64.6050	 2180.00	 2127.22	-1542.02	 1556.67
     64.6310	 2183.00	 2125.20	-1537.01	 1556.20
     64.6570	 2137.00	 2123.24	-1581.04	 1555.74
     64.6830	 2130.00	 2121.33	-1586.13	 1555.27
     64.7090	 2088.00	 2119.46	-1626.26	 1554.81
     64.7350	 2094.00	 2117.65	-1618.45	 1554.34
     64.7610	 2130.00	 2115.88	-1580.68	 1553.88
     64.7870	 2066.00	 2114.16	-1642.96	 1553.41
     64.8130	 2131.00	 2112.48	-1576.29	 1552.95
     64.8390	 2100.00	 2110.85	-1605.65	 1552.48
     64.8650	 2050.00	 2109.26	-1654.07	 1552.02
     64.8910	 2070.00	 2107.72	-1632.52	 1551.55
     64.9170	 2092.00	 2106.21	-1609.01	 1551.09
     64.9430	 2041.00	 2104.74	-1658.54	 1550.62
     64.9690	 2099.00	 2103.31	-1599.12	 1550.16
     64.9950	 2081.00	 2101.92	-1615.73	 1549.69
     65.0210	 2006.00	 2100.57	-1689.37	 1549.23
     65.0470	 2015.00	 2099.26	-1679.06	 1548.76
     65.0730	 2072.00	 2097.98	-1620.78	 1548.30
     65.0990	 2056.00	 2096.73	-1635.54	 1547.84
     65.1250	 2024.00	 2095.53	-1666.33	 1547.37
     65.1510	 2077.00	 2094.35	-1612.16	 1546.91
     65.1770	 2039.00	 2093.22	-1649.02	 1546.44
     65.2030	 2092.00	 2092.11	-1594.91	 1545.98
     65.2290	 1991.00	 2091.04	-1694.85	 1545.51
     65.2550	 2017.00	 2090.01	-1667.81	 1545.05
     65.2810	 2081.00	 2089.01	-1602.81	 1544.58
     65.3070	 2094.00	 2088.04	-1588.84	 1544.12
     65.3330	 2063.00	 2087.11	-1618.91	 1543.65
     65.3590	 2019.00	 2086.21	-1662.01	 1543.19
     65.3850	 1986.00	 2085.34	-1694.15	 1542.72
     65.4110	 2054.00	 2084.51	-1625.32	 1542.26
     65.4370	 2121.00	 2083.72	-1557.52	 1541.79
     65.4630	 2136.00	 2082.96	-1541.76	 1541.33
     65.4890	 2069.00	 2082.23	-1608.03	 1540.86
     65.5150	 2060.00	 2081.54	-1616.34	 1540.40
     65.5410	 2068.00	 2080.89	-1607.69	 1539.93
     65.5670	 2081.00	 2080.27	-1594.07	 1539.47
     65.5930	 2062.00	 2079.69	-1612.49	 1539.00
     65.6190	 2131.00	 2079.15	-1542.95	 1538.54
     65.6450	 2017.00	 2078.64	-1656.44	 1538.07
     65.6710	 2088.00	 2078.17	-1584.97	 1537.61
     65.6970	 1983.00	 2077.74	-1689.54	 1537.15
     65.7230	 1967.00	 2077.35	-1705.15	 1536.68
     65.7490	 2004.00	 2077.00	-1667.80	 1536.22
     65.7750	 2035.00	 2076.69	-1636.49	 1535.75
     65.8010	 2019.00	 2076.42	-1652.22	 1535.29
     65.8270	 2017.00	 2076.19	-1653.99	 1534.82
     65.8530	 2026.00	 2075.99	-1644.80	 1534.36
     65.8790	 2047.00	 2075.84	-1623.64	 1533.89
     65.9050	 2023.00	 2075.73	-1647.53	 1533.43
     65.9310	 1956.00	 2075.58	-1714.38	 1532.96
     65.9570	 2011.00	 2075.54	-1659.34	 1532.50
     65.9830	 2028.00	 2075.53	-1642.33	 1532.03
     66.0090	 2008.00	 2075.52	-1662.32	 1531.57
     66.0350	 1945.00	 2075.58	-1725.38	 1531.10
     66.0610	 2032.00	 2075.66	-1638.46	 1530.64
     66.0870	 2017.00	 2075.76	-1653.56	 1530.17
     66.1130	 2054.00	 2075.88	-1616.68	 1529.71
     66.1390	 2038.00	 2076.14	-1632.94	 1529.38
     66.1650	 2101.00	 2076.54	-1570.34	 1529.18
     66.1910	 2100.00	 2076.94	-1571.74	 1528.97
     66.2170	 2038.00	 2077.33	-1634.14	 1528.77
     66.2430	 2085.00	 2077.71	-1587.51	 1528.57
     66.2690	 2094.00	 2078.06	-1578.86	 1528.37
     66.2950	 2086.00	 2078.38	-1587.18	 1528.17
     66.3210	 2032.00	 2078.65	-1641.45	 1527.97
     66.3470	 2039.00	 2078.87	-1634.67	 1527.77
     66.3730	 2072.00	 2079.03	-1601.83	 1527.57
     66.3990	 2115.00	 2079.13	-1558.93	 1527.37
     66.4250	 2097.00	 2079.14	-1576.94	 1527.17
     66.4510	 2064.00	 2079.07	-1609.87	 1526.97
     66.4770	 2073.00	 2078.91	-1600.71	 1526.77
     66.5030	 2049.00	 2078.66	-1624.46	 1526.57
     66.5290	 2028.00	 2078.31	-1645.11	 1526.37
     66.5550	 2059.00	 2077.86	-1613.66	 1526.17
     66.5810	 2080.00	 2077.31	-1592.11	 1525.96
     66.6070	 2068.00	 2076.67	-1603.47	 1525.76
     66.6330	 2060.00	 2075.93	-1610.73	 1525.56
     66.6590	 2050.00	 2075.09	-1619.90	 1525.36
     66.6850	 2081.00	 2074.18	-1587.98	 1525.16
     66.7110	 2099.00	 2073.19	-1568.99	 1524.96
     66.7370	 2065.00	 2072.12	-1601.92	 1524.76
     66.7630	 2094.00	 2070.99	-1571.80	 1524.56
     66.7890	 2114.00	 2069.81	-1550.61	 1524.36
     66.8150	 2107.00	 2068.58	-1556.38	 1524.16
     66.8410	 2129.00	 2067.32	-1533.12	 1523.96
     66.8670	 2109.00	 2066.02	-1551.82	 1523.76
     66.8930	 2047.00	 2064.70	-1612.51	 1523.56
     66.9190	 2075.00	 2063.37	-1583.17	 1523.36
     66.9450	 2089.00	 2062.04	-1567.84	 1523.15
     66.9710	 2106.00	 2060.70	-1549.50	 1522.95
     66.9970	 2075.00	 2059.37	-1579.17	 1522.75
     67.0230	 2105.00	 2058.05	-1547.85	 1522.55
     67.0490	 2056.00	 2056.74	-1595.54	 1522.35
     67.0750	 2028.00	 2055.46	-1622.26	 1522.15
     67.1010	 2078.00	 2054.19	-1570.99	 1521.95
     67.1270	 2059.00	 2052.96	-1588.76	 1521.75
     67.1530	 2039.00	 2051.75	-1607.55	 1521.55
     67.1790	 2053.00	 2050.57	-1592.37	 1521.35
     67.2050	 2043.00	 2049.42	-1601.22	 1521.15
     67.2310	 2039.00	 2048.30	-1604.10	 1520.95
     67.2570	 2024.00	 2047.21	-1618.02	 1520.75
     67.2830	 2080.00	 2046.16	-1560.96	 1520.55
     67.3090	 2055.00	 2045.14	-1584.94	 1520.34
     67.3350	 2038.00	 2044.15	-1600.95	 1520.14
     67.3610	 2009.00	 2043.20	-1629.00	 1519.94
     67.3870	 2089.00	 2042.27	-1548.07	 1519.74
     67.4130	 2168.00	 2041.38	-1468.18	 1519.54
     67.4390	 2073.00	 2040.51	-1562.31	 1519.34
     67.4650	 2082.00	 2039.68	-1552.48	 1519.14
     67.4910	 2150.00	 2038.87	-1483.67	 1518.94
     67.5170	 2067.00	 2038.09	-1565.90	 1518.74
     67.5430	 2002.00	 2037.34	-1630.14	 1518.54
     67.5690	 2064.00	 2036.62	-1567.42	 1518.34
     67.5950	 2069.00	 2035.92	-1561.72	 1518.14
     67.6210	 2032.00	 2035.24	-1598.04	 1517.94
     67.6470	 2070.00	 2034.59	-1559.39	 1517.74
     67.6730	 2074.00	 2033.96	-1554.76	 1517.53
     67.6990	 2022.00	 2033.36	-1606.16	 1517.33
     67.7250	 1967.00	 2032.77	-1660.57	 1517.13
     67.7510	 2068.00	 2032.21	-1559.01	 1516.93
     67.7770	 2038.00	 2031.66	-1588.46	 1516.73
     67.8030	 2140.00	 2031.14	-1485.94	 1516.53
     67.8290	 2171.00	 2030.63	-1454.43	 1516.33
     67.8550	 2040.00	 2030.14	-1584.94	 1516.13
     67.8810	 2080.00	 2029.67	-1544.47	 1515.93
     67.9070	 2157.00	 2029.22	-1467.02	 1515.73
     67.9330	 2084.00	 2028.78	-1539.59	 1515.53
     67.9590	 2123.00	 2028.37	-1500.17	 1515.33
     67.9850	 2014.00	 2027.96	-1608.76	 1515.13
     68.0110	 2036.00	 2027.57	-1586.38	 1514.93
     68.0370	 2065.00	 2027.20	-1557.00	 1514.72
     68.0630	 1999.00	 2026.84	-1622.65	 1514.52
     68.0890	 2019.00	 2026.50	-1602.30	 1514.32
     68.1150	 2060.00	 2026.17	-1560.98	 1514.12
     68.1410	 2082.00	 2025.86	-1538.66	 1513.92
     68.1670	 2091.00	 2025.56	-1529.36	 1513.72
     68.1930	 2156.00	 2025.28	-1464.08	 1513.52
     68.2190	 2100.00	 2025.00	-1519.80	 1513.32
     68.2450	 2073.00	 2024.74	-1546.55	 1513.12
     68.2710	 2083.00	 2024.50	-1536.30	 1512.92
     68.2970	 2075.00	 2024.27	-1544.07	 1512.72
     68.3230	 2053.00	 2024.05	-1565.85	 1512.52
     68.3490	 2047.00	 2023.85	-1571.65	 1512.32
     68.3750	 2137.00	 2023.66	-1481.46	 1512.12
     68.4010	 2112.00	 2023.48	-1506.28	 1511.91
     68.4270	 2051.00	 2023.32	-1567.12	 1511.71
     68.4530	 2101.00	 2023.17	-1516.97	 1511.51
     68.4790	 2071.00	 2023.03	-1546.83	 1511.31
     68.5050	 2040.00	 2022.91	-1577.71	 1511.11
     68.5310	 2035.00	 2022.80	-1582.60	 1510.91
     68.5570	 2075.00	 2022.71	-1542.51	 1510.71
     68.5830	 2082.00	 2022.63	-1535.43	 1510.51
     68.6090	 2080.00	 2022.56	-1537.36	 1510.31
     68.6350	 2089.00	 2022.51	-1528.31	 1510.11
     68.6610	 2071.00	 2022.48	-1546.28	 1509.91
     68.6870	 2028.00	 2022.46	-1589.26	 1509.71
     68.7130	 2052.00	 2022.45	-1565.26	 1509.51
     68.7390	 2064.00	 2022.47	-1553.27	 1509.31
     68.7650	 2064.00	 2022.50	-1553.30	 1509.11
     68.7910	 2107.00	 2022.55	-1510.35	 1508.90
     68.8170	 2001.00	 2022.61	-1616.41	 1508.70
     68.8430	 2045.00	 2022.69	-1572.49	 1508.50
     68.8690	 2085.00	 2022.80	-1532.60	 1508.30
     68.8950	 2012.00	 2022.92	-1605.72	 1508.10
     68.9210	 2028.00	 2023.06	-1589.86	 1507.90
     68.9470	 2104.00	 2023.22	-1514.02	 1507.70
     68.9730	 2111.00	 2023.40	-1507.20	 1507.50
     68.9990	 2075.00	 2023.61	-1543.41	 1507.30
     69.0250	 2031.00	 2023.84	-1587.64	 1507.10
     69.0510	 2028.00	 2024.09	-1590.89	 1506.90
     69.0770	 2093.00	 2024.37	-1526.17	 1506.70
     69.1030	 2111.00	 2024.67	-1508.47	 1506.50
     69.1290	 2096.00	 2025.00	-1523.80	 1506.30
     69.1550	 2122.00	 2025.35	-1498.16	 1506.09
     69.1810	 2113.00	 2025.74	-1507.54	 1505.89
     69.2070	 2083.00	 2026.17	-1537.97	 1505.70
     69.2330	 2121.00	 2026.64	-1500.44	 1505.53
     69.2590	 2079.00	 2027.14	-1542.94	 1505.35
     69.2850	 2010.00	 2027.68	-1612.48	 1505.17
     69.3110	 2033.00	 2028.25	-1590.05	 1504.99
     69.3370	 2040.00	 2028.86	-1583.66	 1504.81
     69.3630	 2027.00	 2029.51	-1597.31	 1504.63
     69.3890	 2046.00	 2030.20	-1579.01	 1504.45
     69.4150	 2104.00	 2030.94	-1521.74	 1504.27
     69.4410	 2079.00	 2031.71	-1547.52	 1504.10
     69.4670	 2067.00	 2032.54	-1560.34	 1503.92
     69.4930	 2077.00	 2033.41	-1551.21	 1503.74
     69.5190	 2093.00	 2034.34	-1536.14	 1503.56
     69.5450	 2114.00	 2035.31	-1516.11	 1503.38
     69.5710	 2077.00	 2036.34	-1554.15	 1503.20
     69.5970	 2067.00	 2037.43	-1565.24	 1503.02
     69.6230	 2148.00	 2038.58	-1485.38	 1502.84
     69.6490	 2026.00	 2039.80	-1608.60	 1502.67
     69.6750	 2018.00	 2041.07	-1617.87	 1502.49
     69.7010	 2081.00	 2042.42	-1556.22	 1502.31
     69.7270	 2053.00	 2043.83	-1585.63	 1502.13
     69.7530	 2019.00	 2045.32	-1621.12	 1501.95
     69.7790	 2015.00	 2046.88	-1626.68	 1501.77
     69.8050	 2046.00	 2048.52	-1597.32	 1501.59
     69.8310	 2127.00	 2050.24	-1518.04	 1501.42
     69.8570	 2083.00	 2052.03	-1563.83	 1501.24
     69.8830	 2047.00	 2053.91	-1601.71	 1501.06
     69.9090	 2067.00	 2055.88	-1583.68	 1500.88
     69.9350	 2065.00	 2057.92	-1587.72	 1500.70
     69.9610	 2039.00	 2060.05	-1615.85	 1500.52
     69.9870	 2065.00	 2062.26	-1592.07	 1500.34
     70.0130	 2062.00	 2064.56	-1597.36	 1500.16
     70.0390	 2059.00	 2066.93	-1602.73	 1499.99
     70.0650	 2058.00	 2069.38	-1606.18	 1499.81
     70.0910	 2041.00	 2071.90	-1625.70	 1499.63
     70.1170	 2023.00	 2074.49	-1646.29	 1499.45
     70.1430	 2075.00	 2077.13	-1596.93	 1499.27
     70.1690	 2133.00	 2079.82	-1541.62	 1499.09
     70.1950	 2080.00	 2082.54	-1597.34	 1498.91
     70.2210	 2096.00	 2085.29	-1584.09	 1498.73
     70.2470	 2086.00	 2088.05	-1596.85	 1498.56
     70.2730	 2082.00	 2090.80	-1603.60	 1498.38
     70.2990	 2126.00	 2093.52	-1562.32	 1498.20
     70.3250	 2139.00	 2096.19	-1551.99	 1498.02
     70.3510	 2148.00	 2098.79	-1545.59	 1497.84
     70.3770	 2012.00	 2101.30	-1684.10	 1497.66
     70.4030	 2021.00	 2103.69	-1677.49	 1497.48
     70.4290	 2140.00	 2105.93	-1560.73	 1497.30
     70.4550	 2044.00	 2108.00	-1658.80	 1497.13
     70.4810	 2044.00	 2109.88	-1660.68	 1496.95
     70.5070	 2133.00	 2111.55	-1573.35	 1496.77
     70.5330	 2112.00	 2112.97	-1595.77	 1496.59
     70.5590	 2089.00	 2114.13	-1619.93	 1496.41
     70.5850	 2020.00	 2115.02	-1689.82	 1496.23
     70.6110	 2037.00	 2115.62	-1673.42	 1496.05
     70.6370	 2025.00	 2115.93	-1685.73	 1495.87
     70.6630	 1992.00	 2115.93	-1718.73	 1495.70
     70.6890	 2030.00	 2115.62	-1680.43	 1495.52
     70.7150	 2082.00	 2115.02	-1627.82	 1495.34
     70.7410	 2111.00	 2114.13	-1597.93	 1495.16
     70.7670	 2032.00	 2112.95	-1675.75	 1494.98
     70.7930	 2057.00	 2111.50	-1649.30	 1494.80
     70.8190	 2064.00	 2109.80	-1640.60	 1494.62
     70.8450	 2088.00	 2107.87	-1614.67	 1494.44
     70.8710	 2049.00	 2105.73	-1651.53	 1494.27
     70.8970	 1986.00	 2103.40	-1712.21	 1494.09
     70.9230	 2085.00	 2100.91	-1610.72	 1493.91
     70.9490	 2043.00	 2098.28	-1650.09	 1493.73
     70.9750	 2120.00	 2095.54	-1570.34	 1493.55
     71.0010	 2091.00	 2092.71	-1596.51	 1493.37
     71.0270	 2082.00	 2089.80	-1602.60	 1493.19
     71.0530	 2044.00	 2086.85	-1637.65	 1493.01
     71.0790	 2102.00	 2083.88	-1576.68	 1492.84
     71.1050	 2066.00	 2080.89	-1609.69	 1492.66
     71.1310	 2068.00	 2077.91	-1604.71	 1492.48
     71.1570	 2053.00	 2074.95	-1616.75	 1492.30
     71.1830	 2035.00	 2072.03	-1631.83	 1492.12
     71.2090	 2117.00	 2069.15	-1546.96	 1491.94
     71.2350	 2075.00	 2066.33	-1586.14	 1491.76
     71.2610	 2030.00	 2063.58	-1628.38	 1491.58
     71.2870	 2047.00	 2060.89	-1608.69	 1491.41
     71.3130	 2037.00	 2058.28	-1616.08	 1491.23
     71.3390	 2038.00	 2055.75	-1612.55	 1491.05
     71.3650	 2058.00	 2053.30	-1590.10	 1490.87
     71.3910	 1952.00	 2050.93	-1693.73	 1490.69
     71.4170	 1963.00	 2048.65	-1680.45	 1490.51
     71.4430	 2039.00	 2046.45	-1602.25	 1490.33
     71.4690	 2042.00	 2044.34	-1597.14	 1490.15
     71.4950	 2000.00	 2042.31	-1637.11	 1489.98
     71.5210	 2078.00	 2040.36	-1557.16	 1489.80
     71.5470	 2048.00	 2038.49	-1585.30	 1489.62
     71.5730	 1966.00	 2036.71	-1665.51	 1489.44
     71.5990	 2004.00	 2035.00	-1625.80	 1489.26
     71.6250	 2054.00	 2033.37	-1574.17	 1489.08
     71.6510	 2065.00	 2031.80	-1561.61	 1488.90
     71.6770	 2085.00	 2030.31	-1540.12	 1488.72
     71.7030	 2101.00	 2028.89	-1522.70	 1488.55
     71.7290	 2082.00	 2027.54	-1540.34	 1488.37
     71.7550	 2076.00	 2026.25	-1545.05	 1488.19
     71.7810	 2016.00	 2024.43	-1603.23	 1488.01
     71.8070	 1975.00	 2023.26	-1643.06	 1487.83
     71.8330	 1974.00	 2022.15	-1642.95	 1487.65
     71.8590	 1977.00	 2021.09	-1638.90	 1487.47
     71.8850	 1982.00	 2019.80	-1632.60	 1487.30
     71.9110	 1975.00	 2018.90	-1638.70	 1487.17
     71.9370	 2030.00	 2018.15	-1582.95	 1487.14
     71.9630	 2007.00	 2017.45	-1605.26	 1487.11
     71.9890	 1953.00	 2016.80	-1658.60	 1487.08
     72.0150	 1987.00	 2016.20	-1624.00	 1487.06
     72.0410	 2014.00	 2015.63	-1596.43	 1487.03
     72.0670	 2033.00	 2015.11	-1576.91	 1487.00
     72.0930	 2002.00	 2014.63	-1607.44	 1486.97
     72.1190	 2019.00	 2014.20	-1590.00	 1486.95
     72.1450	 2005.00	 2013.80	-1603.60	 1486.92
     72.1710	 1987.00	 2013.44	-1621.24	 1486.89
     72.1970	 2077.00	 2013.11	-1530.91	 1486.86
     72.2230	 2051.00	 2012.82	-1556.62	 1486.84
     72.2490	 1988.00	 2012.57	-1619.37	 1486.81
     72.2750	 1982.00	 2012.35	-1625.15	 1486.78
     72.3010	 1969.00	 2012.17	-1637.97	 1486.75
     72.3270	 1964.00	 2012.02	-1642.82	 1486.72
     72.3530	 1961.00	 2011.90	-1645.71	 1486.70
     72.3790	 2006.00	 2011.82	-1600.62	 1486.67
     72.4050	 1974.00	 2011.77	-1632.57	 1486.64
     72.4310	 2001.00	 2011.75	-1605.55	 1486.61
     72.4570	 1983.00	 2011.77	-1623.57	 1486.59
     72.4830	 2025.00	 2011.81	-1581.61	 1486.56
     72.5090	 2019.00	 2011.89	-1587.69	 1486.53
     72.5350	 2071.00	 2012.00	-1535.80	 1486.50
     72.5610	 1977.00	 2012.14	-1629.94	 1486.48
     72.5870	 2028.00	 2012.31	-1579.12	 1486.45
     72.6130	 1973.00	 2012.52	-1634.32	 1486.42
     72.6390	 1918.00	 2012.76	-1689.56	 1486.39
     72.6650	 1965.00	 2013.03	-1642.83	 1486.37
     72.6910	 1989.00	 2013.34	-1619.14	 1486.34
     72.7170	 1962.00	 2013.68	-1646.48	 1486.31
     72.7430	 2034.00	 2014.05	-1574.85	 1486.28
     72.7690	 1965.00	 2014.46	-1644.26	 1486.26
     72.7950	 1961.00	 2014.90	-1648.70	 1486.23
     72.8210	 2001.00	 2015.38	-1609.18	 1486.20
     72.8470	 2022.00	 2015.90	-1588.70	 1486.17
     72.8730	 1987.00	 2016.46	-1624.26	 1486.15
     72.8990	 1956.00	 2017.05	-1655.85	 1486.12
     72.9250	 2028.00	 2017.69	-1584.49	 1486.09
     72.9510	 1985.00	 2018.37	-1628.17	 1486.06
     72.9770	 1988.00	 2019.09	-1625.89	 1486.04
     73.0030	 2013.00	 2019.85	-1601.65	 1486.01
     73.0290	 1994.00	 2020.66	-1621.46	 1485.98
     73.0550	 1929.00	 2021.51	-1687.32	 1485.95
     73.0810	 2000.00	 2022.42	-1617.22	 1485.93
     73.1070	 2050.00	 2023.38	-1568.18	 1485.90
     73.1330	 2069.00	 2024.38	-1550.18	 1485.87
     73.1590	 1995.00	 2025.44	-1625.25	 1485.84
     73.1850	 1946.00	 2026.56	-1675.36	 1485.82
     73.2110	 2059.00	 2027.74	-1563.54	 1485.79
     73.2370	 2075.00	 2028.98	-1548.78	 1485.76
     73.2630	 2007.00	 2030.28	-1618.08	 1485.73
     73.2890	 2018.00	 2031.65	-1608.45	 1485.71
     73.3150	 1974.00	 2033.08	-1653.88	 1485.68
     73.3410	 2042.00	 2034.59	-1587.39	 1485.65
     73.3670	 2013.00	 2036.17	-1617.97	 1485.62
     73.3930	 2013.00	 2037.83	-1619.63	 1485.59
     73.4190	 1990.00	 2039.57	-1644.37	 1485.57
     73.4450	 2029.00	 2041.40	-1607.20	 1485.54
     73.4710	 2013.00	 2043.31	-1625.11	 1485.51
     73.4970	 2039.00	 2045.32	-1601.12	 1485.48
     73.5230	 2051.00	 2047.42	-1591.22	 1485.46
     73.5490	 2018.00	 2049.62	-1626.42	 1485.43
     73.5750	 1951.00	 2051.80	-1695.60	 1485.40
     73.6010	 2033.00	 2054.21	-1616.01	 1485.37
     73.6270	 1987.00	 2056.74	-1664.54	 1485.35
     73.6530	 2059.00	 2059.38	-1595.18	 1485.32
     73.6790	 2010.00	 2062.08	-1646.88	 1485.29
     73.7050	 2079.00	 2064.97	-1580.77	 1485.26
     73.7310	 2003.00	 2067.99	-1659.79	 1485.24
     73.7570	 2013.00	 2071.14	-1652.94	 1485.21
     73.7830	 2041.00	 2074.43	-1628.24	 1485.18
     73.8090	 2010.00	 2077.87	-1662.67	 1485.15
     73.8350	 2073.00	 2081.44	-1603.24	 1485.13
     73.8610	 2081.00	 2085.17	-1598.97	 1485.10
     73.8870	 2103.00	 2089.04	-1580.84	 1485.07
     73.9130	 2043.00	 2093.07	-1644.87	 1485.04
     73.9390	 2030.00	 2097.25	-1662.05	 1485.02
     73.9650	 2085.00	 2101.58	-1611.38	 1484.99
     73.9910	 2154.00	 2106.06	-1546.86	 1484.96
     74.0170	 2090.00	 2110.68	-1615.48	 1484.93
     74.0430	 2107.00	 2115.45	-1603.25	 1484.91
     74.0690	 2091.00	 2120.35	-1624.16	 1484.88
     74.0950	 2072.00	 2125.38	-1648.18	 1484.85
     74.1210	 2046.00	 2130.53	-1679.33	 1484.82
     74.1470	 2103.00	 2135.77	-1627.57	 1484.80
     74.1730	 2187.00	 2141.09	-1548.89	 1484.77
     74.1990	 2176.00	 2146.48	-1565.28	 1484.74
     74.2250	 2120.00	 2151.90	-1626.70	 1484.71
     74.2510	 2129.00	 2157.34	-1623.14	 1484.69
     74.2770	 2161.00	 2162.76	-1596.56	 1484.66
     74.3030	 2223.00	 2168.12	-1539.92	 1484.63
     74.3290	 2178.00	 2173.39	-1590.20	 1484.60
     74.3550	 2114.00	 2178.54	-1659.34	 1484.58
     74.3810	 2125.00	 2183.51	-1653.31	 1484.55
     74.4070	 2182.00	 2188.27	-1601.07	 1484.52
     74.4330	 2216.00	 2192.76	-1571.56	 1484.49
     74.4590	 2239.00	 2196.96	-1552.76	 1484.46
     74.4850	 2271.00	 2200.80	-1524.60	 1484.44
     74.5110	 2229.00	 2204.25	-1570.05	 1484.41
     74.5370	 2170.00	 2207.28	-1632.08	 1484.38
     74.5630	 2154.00	 2209.84	-1650.64	 1484.35
     74.5890	 2179.00	 2211.90	-1627.70	 1484.33
     74.6150	 2181.00	 2213.45	-1627.25	 1484.30
     74.6410	 2172.00	 2214.45	-1637.26	 1484.27
     74.6670	 2202.00	 2214.91	-1607.71	 1484.24
     74.6930	 2215.00	 2214.82	-1594.62	 1484.22
     74.7190	 2223.00	 2214.17	-1585.97	 1484.19
     74.7450	 2265.00	 2212.98	-1542.78	 1484.16
     74.7710	 2261.00	 2211.27	-1545.07	 1484.13
     74.7970	 2262.00	 2209.05	-1541.85	 1484.11
     74.8230	 2207.00	 2206.35	-1594.15	 1484.08
     74.8490	 2127.00	 2203.21	-1671.01	 1484.05
     74.8750	 2140.00	 2199.66	-1654.46	 1484.02
     74.9010	 2185.00	 2195.74	-1605.55	 1484.00
     74.9270	 2196.00	 2191.50	-1590.30	 1483.97
     74.9530	 2208.00	 2186.96	-1573.76	 1483.94
     74.9790	 2178.00	 2182.18	-1598.98	 1483.91
     75.0050	 2234.00	 2177.20	-1538.00	 1483.89
     75.0310	 2216.00	 2172.06	-1550.86	 1483.86
     75.0570	 2184.00	 2166.79	-1577.59	 1483.83
     75.0830	 2193.00	 2161.44	-1563.24	 1483.80
     75.1090	 2140.00	 2156.04	-1610.84	 1483.78
     75.1350	 2173.00	 2150.62	-1572.42	 1483.75
     75.1610	 2140.00	 2145.21	-1600.01	 1483.72
     75.1870	 2112.00	 2139.84	-1622.64	 1483.69
     75.2130	 2145.00	 2134.53	-1584.33	 1483.67
     75.2390	 2200.00	 2129.30	-1524.10	 1483.64
     75.2650	 2140.00	 2124.16	-1578.96	 1483.61
     75.2910	 2140.00	 2119.14	-1573.94	 1483.58
     75.3170	 2088.00	 2114.23	-1621.04	 1483.56
     75.3430	 2101.00	 2109.46	-1603.26	 1483.53
     75.3690	 2090.00	 2104.83	-1609.63	 1483.50
     75.3950	 2087.00	 2100.34	-1608.14	 1483.47
     75.4210	 2092.00	 2096.00	-1598.80	 1483.44
     75.4470	 2131.00	 2091.80	-1555.61	 1483.42
     75.4730	 2056.00	 2087.76	-1626.56	 1483.39
     75.4990	 2125.00	 2083.87	-1553.67	 1483.36
     75.5250	 2082.00	 2080.12	-1592.92	 1483.33
     75.5510	 2043.00	 2076.52	-1628.32	 1483.31
     75.5770	 2101.00	 2073.07	-1566.87	 1483.28
     75.6030	 2005.00	 2069.75	-1659.55	 1483.25
     75.6290	 2065.00	 2066.58	-1596.38	 1483.22
     75.6550	 2053.00	 2063.53	-1605.34	 1483.20
     75.6810	 2017.00	 2060.62	-1638.42	 1483.17
     75.7070	 2059.00	 2057.83	-1593.64	 1483.14
     75.7330	 2066.00	 2055.17	-1583.97	 1483.11
     75.7590	 2138.00	 2052.62	-1509.42	 1483.09
     75.7850	 2072.00	 2050.18	-1572.99	 1483.06
     75.8110	 2000.00	 2047.86	-1642.66	 1483.03
     75.8370	 2126.00	 2045.64	-1514.44	 1483.00
     75.8630	 2116.00	 2043.52	-1522.32	 1482.98
     75.8890	 2159.00	 2041.50	-1477.30	 1482.95
     75.9150	 2044.00	 2039.57	-1590.37	 1482.92
     75.9410	 2044.00	 2037.73	-1588.53	 1482.89
     75.9670	 2043.00	 2035.97	-1587.77	 1482.87
     75.9930	 2052.00	 2034.30	-1577.10	 1482.84
     76.0190	 2010.00	 2032.71	-1617.51	 1482.81
     76.0450	 2040.00	 2031.20	-1586.00	 1482.78
     76.0710	 1986.00	 2029.75	-1638.56	 1482.76
     76.0970	 2048.00	 2028.38	-1575.18	 1482.73
     76.1230	 2029.00	 2027.08	-1592.88	 1482.70
     76.1490	 2113.00	 2025.84	-1507.65	 1482.67
     76.1750	 2070.00	 2024.67	-1549.47	 1482.65
     76.2010	 2031.00	 2023.56	-1587.36	 1482.62
     76.2270	 2045.00	 2022.50	-1572.30	 1482.59
     76.2530	 1968.00	 2021.51	-1648.31	 1482.56
     76.2790	 2065.00	 2020.56	-1550.37	 1482.54
     76.3050	 2002.00	 2019.68	-1612.48	 1482.51
     76.3310	 2096.00	 2018.84	-1517.64	 1482.48
     76.3570	 2089.00	 2018.05	-1523.85	 1482.45
     76.3830	 2143.00	 2017.31	-1469.12	 1482.43
     76.4090	 2091.00	 2016.62	-1520.42	 1482.40
     76.4350	 2044.00	 2015.98	-1566.78	 1482.37
     76.4610	 2054.00	 2015.38	-1556.18	 1482.34
     76.4870	 2087.00	 2014.82	-1522.63	 1482.31
     76.5130	 2042.00	 2014.31	-1567.11	 1482.29
     76.5390	 2076.00	 2013.84	-1532.64	 1482.26
     76.5650	 2025.00	 2013.41	-1583.22	 1482.23
     76.5910	 2034.00	 2013.03	-1573.83	 1482.20
     76.6170	 1997.00	 2012.68	-1610.48	 1482.18
     76.6430	 2020.00	 2012.37	-1587.17	 1482.15
     76.6690	 2083.00	 2012.11	-1523.91	 1482.12
     76.6950	 2072.00	 2011.88	-1534.68	 1482.09
     76.7210	 2045.00	 2011.51	-1561.31	 1481.88
     76.7470	 2118.00	 2010.89	-1487.69	 1481.39
     76.7730	 2072.00	 2010.31	-1533.11	 1480.90
     76.7990	 2060.00	 2009.77	-1544.57	 1480.40
     76.8250	 2060.00	 2009.27	-1544.07	 1479.91
     76.8510	 2050.00	 2008.81	-1553.61	 1479.41
     76.8770	 2062.00	 2008.39	-1541.19	 1478.92
     76.9030	 2058.00	 2008.01	-1544.81	 1478.42
     76.9290	 2061.00	 2007.66	-1541.46	 1477.93
     76.9550	 2057.00	 2007.36	-1545.16	 1477.44
     76.9810	 2083.00	 2007.10	-1518.90	 1476.94
     77.0070	 2089.00	 2006.88	-1512.68	 1476.45
     77.0330	 2020.00	 2006.70	-1581.50	 1475.95
     77.0590	 2032.00	 2006.57	-1569.37	 1475.46
     77.0850	 2075.00	 2006.48	-1526.28	 1474.96
     77.1110	 2057.00	 2006.43	-1544.23	 1474.47
     77.1370	 2076.00	 2006.43	-1525.24	 1473.98
     77.1630	 2076.00	 2006.48	-1525.28	 1473.48
     77.1890	 2050.00	 2006.58	-1551.38	 1472.99
     77.2150	 2093.00	 2006.73	-1508.53	 1472.49
     77.2410	 2102.00	 2006.93	-1499.73	 1472.00
     77.2670	 2060.00	 2007.18	-1541.98	 1471.51
     77.2930	 2071.00	 2007.48	-1531.28	 1471.01
     77.3190	 2057.00	 2007.85	-1545.65	 1470.52
     77.3450	 2036.00	 2008.27	-1567.07	 1470.02
     77.3710	 2076.00	 2008.75	-1527.55	 1469.53
     77.3970	 2074.00	 2009.29	-1530.09	 1469.03
     77.4230	 2041.00	 2009.89	-1563.70	 1468.54
     77.4490	 2038.00	 2010.57	-1567.37	 1468.05
     77.4750	 2068.00	 2011.31	-1538.11	 1467.55
     77.5010	 2070.00	 2012.12	-1536.92	 1467.06
     77.5270	 2079.00	 2013.01	-1528.81	 1466.56
     77.5530	 2059.00	 2013.97	-1549.77	 1466.07
     77.5790	 2051.00	 2015.01	-1558.81	 1465.57
     77.6050	 2046.00	 2016.13	-1564.93	 1465.08
     77.6310	 2102.00	 2017.33	-1510.13	 1464.59
     77.6570	 2042.00	 2018.62	-1571.42	 1464.09
     77.6830	 2068.00	 2019.99	-1546.80	 1463.60
     77.7090	 2049.00	 2021.46	-1567.26	 1463.10
     77.7350	 2096.00	 2023.02	-1521.82	 1462.61
     77.7610	 2065.00	 2024.67	-1554.47	 1462.11
     77.7870	 2028.00	 2026.41	-1593.22	 1461.62
     77.8130	 2006.00	 2028.26	-1617.06	 1461.13
     77.8390	 2051.00	 2030.19	-1573.99	 1460.63
     77.8650	 2053.00	 2032.23	-1574.03	 1460.14
     77.8910	 1997.00	 2034.36	-1632.16	 1459.64
     77.9170	 2022.00	 2036.58	-1609.38	 1459.15
     77.9430	 2039.00	 2038.90	-1594.70	 1458.65
     77.9690	 2097.00	 2041.30	-1539.10	 1458.16
     77.9950	 2033.00	 2043.79	-1605.59	 1457.67
     78.0210	 2124.00	 2046.36	-1517.16	 1457.17
     78.0470	 2005.00	 2048.99	-1638.80	 1456.68
     78.0730	 2041.00	 2051.69	-1605.49	 1456.18
     78.0990	 2032.00	 2054.44	-1617.24	 1455.69
     78.1250	 2038.00	 2057.23	-1614.03	 1455.20
     78.1510	 2064.00	 2060.04	-1590.84	 1454.70
     78.1770	 2036.00	 2062.86	-1621.66	 1454.21
     78.2030	 2015.00	 2065.67	-1645.47	 1453.71
     78.2290	 2078.00	 2068.45	-1585.25	 1453.22
     78.2550	 2011.00	 2071.17	-1654.98	 1452.72
     78.2810	 2065.00	 2073.82	-1603.62	 1452.23
     78.3070	 1982.00	 2076.37	-1689.17	 1451.74
     78.3330	 2115.00	 2078.79	-1558.59	 1451.24
     78.3590	 2056.00	 2081.05	-1619.85	 1450.75
     78.3850	 2075.00	 2083.14	-1602.94	 1450.25
     78.4110	 2076.00	 2085.01	-1603.82	 1449.76
     78.4370	 2160.00	 2086.66	-1521.46	 1449.26
     78.4630	 2032.00	 2088.05	-1650.85	 1448.77
     78.4890	 2056.00	 2089.16	-1627.96	 1448.28
     78.5150	 2042.00	 2089.98	-1642.78	 1447.78
     78.5410	 2049.00	 2090.49	-1636.29	 1447.29
     78.5670	 2080.00	 2090.67	-1605.47	 1446.79
     78.5930	 2017.00	 2090.52	-1668.32	 1446.30
     78.6190	 2060.00	 2090.03	-1624.83	 1445.80
     78.6450	 2073.00	 2089.20	-1611.01	 1445.31
     78.6710	 1948.00	 2088.05	-1734.85	 1444.82
     78.6970	 2051.00	 2086.56	-1630.36	 1444.32
     78.7230	 2061.00	 2084.76	-1618.56	 1443.83
     78.7490	 2048.00	 2082.66	-1629.46	 1443.33
     78.7750	 2032.00	 2080.27	-1643.07	 1442.84
     78.8010	 2050.00	 2077.62	-1622.42	 1442.34
     78.8270	 1972.00	 2074.72	-1697.52	 1441.85
     78.8530	 2049.00	 2071.61	-1617.41	 1441.36
     78.8790	 2058.00	 2068.30	-1605.10	 1440.86
     78.9050	 2090.00	 2064.81	-1569.62	 1440.37
     78.9310	 2049.00	 2061.18	-1606.99	 1439.87
     78.9570	 1999.00	 2057.43	-1653.23	 1439.38
     78.9830	 2009.00	 2053.58	-1639.39	 1438.89
     79.0090	 2063.00	 2049.66	-1581.46	 1438.39
     79.0350	 2025.00	 2045.69	-1615.49	 1437.90
     79.0610	 1996.00	 2041.68	-1640.48	 1437.40
     79.0870	 1986.00	 2037.66	-1646.46	 1436.91
     79.1130	 2075.00	 2033.64	-1553.44	 1436.41
     79.1390	 2098.00	 2029.65	-1526.45	 1435.92
     79.1650	 2001.00	 2025.68	-1619.49	 1435.43
     79.1910	 2028.00	 2021.77	-1588.57	 1434.93
     79.2170	 2020.00	 2017.91	-1592.71	 1434.44
     79.2430	 1982.00	 2014.11	-1626.91	 1433.94
     79.2690	 1988.00	 2010.38	-1617.19	 1433.45
     79.2950	 1993.00	 2006.74	-1608.54	 1432.95
     79.3210	 2025.00	 2003.17	-1572.98	 1432.46
     79.3470	 1948.00	 1999.70	-1646.50	 1431.97
     79.3730	 1929.00	 1996.31	-1662.11	 1431.47
     79.3990	 1948.00	 1993.01	-1639.81	 1430.98
     79.4250	 1908.00	 1989.80	-1676.60	 1430.48
     79.4510	 1935.00	 1986.68	-1646.48	 1429.99
     79.4770	 1974.00	 1983.65	-1604.45	 1429.49
     79.5030	 1929.00	 1980.71	-1646.51	 1429.00
     79.5290	 1919.00	 1977.86	-1653.66	 1428.51
     79.5550	 1946.00	 1975.10	-1623.90	 1428.01
     79.5810	 1901.00	 1972.42	-1666.22	 1427.52
     79.6070	 1903.00	 1969.82	-1661.62	 1427.02
     79.6330	 1917.00	 1967.30	-1645.10	 1426.53
     79.6590	 1914.00	 1964.86	-1645.66	 1426.04
     79.6850	 1968.00	 1962.49	-1589.29	 1425.54
     79.7110	 1990.00	 1960.19	-1565.00	 1425.05
     79.7370	 1938.00	 1957.97	-1614.77	 1424.55
     79.7630	 1889.00	 1955.81	-1661.61	 1424.06
     79.7890	 1920.00	 1953.72	-1628.52	 1423.56
     79.8150	 1928.00	 1951.68	-1618.48	 1423.07
     79.8410	 1892.00	 1949.71	-1652.51	 1422.58
     79.8670	 1909.00	 1948.29	-1634.09	 1422.58
     18.2102	        	        	        	        	       0	(  1  1  1)	  0  1
     18.2563	        	        	        	        	       0	(  1  1  1)	  0  2
     29.9521	        	        	        	        	       0	(  2  2  0)	  0  1
     30.0290	        	        	        	        	       0	(  2  2  0)	  0  2
     35.2780	        	        	        	        	       0	(  3  1  1)	  0  1
     35.3694	        	        	        	        	       0	(  3  1  1)	  0  2
     36.9019	        	        	        	        	       0	(  2  2  2)	  0  1
     36.9978	        	        	        	        	       0	(  2  2  2)	  0  2
     42.8711	        	        	        	        	       0	(  4  0  0)	  0  1
     42.9840	        	        	        	        	       0	(  4  0  0)	  0  2
     46.9370	        	        	        	        	       0	(  3  3  1)	  0  1
     47.0618	        	        	        	        	       0	(  3  3  1)	  0  2
     53.1781	        	        	        	        	       0	(  4  2  2)	  0  1
     53.3221	        	        	        	        	       0	(  4  2  2)	  0  2
     56.6847	        	        	        	        	       0	(  3  3  3)	  0  1
     56.6847	        	        	        	        	       0	(  5  1  1)	  0  1
     56.8399	        	        	        	        	       0	(  3  3  3)	  0  2
     56.8399	        	        	        	        	       0	(  5  1  1)	  0  2
     62.2397	        	        	        	        	       0	(  4  4  0)	  0  1
     62.4134	        	        	        	        	       0	(  4  4  0)	  0  2
     65.4373	        	        	        	        	       0	(  5  3  1)	  0  1
     65.6221	        	        	        	        	       0	(  5  3  1)	  0  2
     66.4847	        	        	        	        	       0	(  4  4  2)	  0  1
     66.6732	        	        	        	        	       0	(  4  4  2)	  0  2
     70.5967	        	        	        	        	       0	(  6  2  0)	  0  1
     70.8004	        	        	        	        	       0	(  6  2  0)	  0  2
     73.6125	        	        	        	        	       0	(  5  3  3)	  0  1
     73.8278	        	        	        	        	       0	(  5  3  3)	  0  2
     74.6070	        	        	        	        	       0	(  6  2  2)	  0  1
     74.8263	        	        	        	        	       0	(  6  2  2)	  0  2
     78.5414	        	        	        	        	       0	(  4  4  4)	  0  1
     78.7767	        	        	        	        	       0	(  4  4  4)	  0  2
