 DD67    CELL:    8.42249   8.42249   8.42249   90.0000   90.0000   90.0000   SPGR: F d -3 m               TEMP:      0.00
  1   2495     1.54056     1.54443     0.00000     0.00000     0.00000    0
    32     0     0
 2Theta	Yobs	Ycal	Yobs-Ycal	Backg	Posr	(hkl)	K
     15.0230	 2829.00	 2612.10	-1159.35	 2255.04
     15.0490	 2821.00	 2609.20	-1164.45	 2251.54
     15.0750	 2926.00	 2606.51	-1056.76	 2248.23
     15.1010	 2899.00	 2604.02	-1081.27	 2245.11
     15.1270	 2833.00	 2601.72	-1144.97	 2242.17
     15.1530	 2817.00	 2599.61	-1158.86	 2239.42
     15.1790	 2878.00	 2597.70	-1095.95	 2236.84
     15.2050	 2852.00	 2595.98	-1120.23	 2234.45
     15.2310	 2796.00	 2594.44	-1174.69	 2232.23
     15.2570	 2894.00	 2593.09	-1075.34	 2230.17
     15.2830	 2907.00	 2591.92	-1061.17	 2228.29
     15.3090	 2907.00	 2590.93	-1060.18	 2226.58
     15.3350	 2949.00	 2590.11	-1017.36	 2225.02
     15.3610	 2889.00	 2589.47	-1076.72	 2223.63
     15.3870	 2883.00	 2589.00	-1082.25	 2222.40
     15.4130	 2803.00	 2588.70	-1161.95	 2221.32
     15.4390	 2831.00	 2588.57	-1133.82	 2220.40
     15.4650	 2893.00	 2588.61	-1071.86	 2219.62
     15.4910	 2925.00	 2588.80	-1040.05	 2219.00
     15.5170	 2902.00	 2589.16	-1063.41	 2218.52
     15.5430	 2959.00	 2589.68	-1006.93	 2218.18
     15.5690	 2915.00	 2590.36	-1051.61	 2217.98
     15.5950	 2836.00	 2591.19	-1131.44	 2217.92
     15.6210	 2889.00	 2592.18	-1079.43	 2218.00
     15.6470	 2828.00	 2593.31	-1141.56	 2218.21
     15.6730	 2960.00	 2594.60	-1010.85	 2218.56
     15.6990	 2965.00	 2596.03	-1007.28	 2219.03
     15.7250	 2908.00	 2597.61	-1065.86	 2219.63
     15.7510	 2946.00	 2599.33	-1029.58	 2220.35
     15.7770	 2939.00	 2601.20	-1038.45	 2221.20
     15.8030	 2920.00	 2603.21	-1059.46	 2222.16
     15.8290	 2872.00	 2605.35	-1109.60	 2223.25
     15.8550	 2920.00	 2607.64	-1063.89	 2224.45
     15.8810	 3007.00	 2610.06	 -979.31	 2225.76
     15.9070	 2985.00	 2612.61	-1003.86	 2227.19
     15.9330	 2947.00	 2615.30	-1044.55	 2228.72
     15.9590	 2902.00	 2618.12	-1092.37	 2230.37
     15.9850	 2865.00	 2621.06	-1132.31	 2232.11
     16.0110	 2905.00	 2624.14	-1095.39	 2233.97
     16.0370	 2924.00	 2627.34	-1079.59	 2235.92
     16.0630	 2921.00	 2630.67	-1085.92	 2237.97
     16.0890	 2969.00	 2634.12	-1041.37	 2240.12
     16.1150	 2905.00	 2637.70	-1108.95	 2242.37
     16.1410	 2961.00	 2641.40	-1056.65	 2244.71
     16.1670	 2803.00	 2645.22	-1218.47	 2247.14
     16.1930	 2938.00	 2649.15	-1087.40	 2249.66
     16.2190	 2910.00	 2653.21	-1119.46	 2252.28
     16.2450	 2916.00	 2657.38	-1117.63	 2254.97
     16.2710	 2955.00	 2661.67	-1082.92	 2257.75
     16.2970	 2914.00	 2666.07	-1128.32	 2260.62
     16.3230	 2923.00	 2670.59	-1123.84	 2263.57
     16.3490	 2974.00	 2675.22	-1077.47	 2266.59
     16.3750	 2988.00	 2679.96	-1068.21	 2269.70
     16.4010	 2977.00	 2684.81	-1084.06	 2272.88
     16.4270	 3066.00	 2689.77	-1000.02	 2276.13
     16.4530	 3077.00	 2694.84	 -994.09	 2279.46
     16.4790	 2992.00	 2700.02	-1084.27	 2282.86
     16.5050	 3048.00	 2705.30	-1033.55	 2286.32
     16.5310	 2949.00	 2710.69	-1137.94	 2289.86
     16.5570	 2908.00	 2716.18	-1184.43	 2293.46
     16.5830	 2984.00	 2721.78	-1114.03	 2297.13
     16.6090	 3028.00	 2727.48	-1075.73	 2300.86
     16.6350	 3020.00	 2733.28	-1089.53	 2304.65
     16.6610	 2989.00	 2739.18	-1126.43	 2308.51
     16.6870	 2975.00	 2745.18	-1146.43	 2312.42
     16.7130	 2942.00	 2751.28	-1185.53	 2316.39
     16.7390	 2957.00	 2757.48	-1176.73	 2320.41
     16.7650	 3022.00	 2763.77	-1118.02	 2324.49
     16.7910	 3016.00	 2770.16	-1130.41	 2328.63
     16.8170	 3054.00	 2776.64	-1098.89	 2332.81
     16.8430	 3104.00	 2783.22	-1055.47	 2337.05
     16.8690	 3043.00	 2789.89	-1123.14	 2341.33
     16.8950	 3011.00	 2796.64	-1161.89	 2345.66
     16.9210	 3019.00	 2803.49	-1160.74	 2350.04
     16.9470	 3040.00	 2810.42	-1146.67	 2354.46
     16.9730	 3031.00	 2817.44	-1162.69	 2358.93
     16.9990	 2975.00	 2824.54	-1225.79	 2363.44
     17.0250	 2998.00	 2831.73	-1209.98	 2367.99
     17.0510	 3047.00	 2838.99	-1168.24	 2372.58
     17.0770	 3062.00	 2846.33	-1160.58	 2377.21
     17.1030	 3027.00	 2853.75	-1203.00	 2381.88
     17.1290	 3031.00	 2861.24	-1206.49	 2386.59
     17.1550	 3102.00	 2868.80	-1143.05	 2391.33
     17.1810	 3077.00	 2876.43	-1175.68	 2396.10
     17.2070	 3012.00	 2884.12	-1248.37	 2400.90
     17.2330	 2985.00	 2891.88	-1283.13	 2405.74
     17.2590	 3049.00	 2899.69	-1226.94	 2410.61
     17.2850	 3091.00	 2907.56	-1192.81	 2415.51
     17.3110	 3002.00	 2915.47	-1289.72	 2420.44
     17.3370	 3085.00	 2923.44	-1214.69	 2425.39
     17.3630	 3020.00	 2931.44	-1287.69	 2430.37
     17.3890	 3021.00	 2939.49	-1294.74	 2435.38
     17.4150	 3088.00	 2947.56	-1235.81	 2440.41
     17.4410	 3081.00	 2955.67	-1250.92	 2445.46
     17.4670	 3044.00	 2963.79	-1296.04	 2450.54
     17.4930	 3057.00	 2971.93	-1291.18	 2455.63
     17.5190	 3135.00	 2980.08	-1221.33	 2460.75
     17.5450	 3093.00	 2988.24	-1271.49	 2465.89
     17.5710	 3096.00	 2996.39	-1276.64	 2471.04
     17.5970	 3080.00	 3004.53	-1300.78	 2476.21
     17.6230	 3163.00	 3012.66	-1225.91	 2481.40
     17.6490	 3101.00	 3020.76	-1296.01	 2486.61
     17.6750	 3012.00	 3028.83	-1393.08	 2491.83
     17.7010	 3062.00	 3036.86	-1351.11	 2497.06
     17.7270	 3075.00	 3044.84	-1346.09	 2502.31
     17.7530	 3150.00	 3052.77	-1279.02	 2507.56
     17.7790	 3061.00	 3060.64	-1375.89	 2512.83
     17.8050	 3014.00	 3068.43	-1430.68	 2518.11
     17.8310	 3092.00	 3076.14	-1360.39	 2523.40
     17.8570	 3134.00	 3083.77	-1326.02	 2528.70
     17.8830	 3041.00	 3091.30	-1426.55	 2534.00
     17.9090	 3107.00	 3098.73	-1367.98	 2539.32
     17.9350	 3076.00	 3106.05	-1406.30	 2544.64
     17.9610	 3056.00	 3113.25	-1433.50	 2549.96
     17.9870	 3030.00	 3120.32	-1466.57	 2555.29
     18.0130	 3002.00	 3127.27	-1501.52	 2560.63
     18.0390	 3229.00	 3134.07	-1281.32	 2565.96
     18.0650	 3146.00	 3140.73	-1370.98	 2571.30
     18.0910	 3129.00	 3147.24	-1394.49	 2576.64
     18.1170	 3058.00	 3153.60	-1471.85	 2581.99
     18.1430	 3052.00	 3159.80	-1484.05	 2587.33
     18.1690	 3090.00	 3165.83	-1452.08	 2592.67
     18.1950	 3057.00	 3171.70	-1490.95	 2598.02
     18.2210	 3110.00	 3177.41	-1443.66	 2603.36
     18.2470	 3151.00	 3182.94	-1408.19	 2608.70
     18.2730	 3093.00	 3188.30	-1471.55	 2614.03
     18.2990	 3046.00	 3193.50	-1523.75	 2619.37
     18.3250	 3015.00	 3198.52	-1559.77	 2624.69
     18.3510	 3017.00	 3203.37	-1562.62	 2630.02
     18.3770	 3050.00	 3208.06	-1534.31	 2635.34
     18.4030	 3040.00	 3212.59	-1548.84	 2640.65
     18.4290	 3067.00	 3216.95	-1526.20	 2645.96
     18.4550	 3152.00	 3221.15	-1445.40	 2651.26
     18.4810	 3161.00	 3225.21	-1440.46	 2656.55
     18.5070	 3056.00	 3229.11	-1549.36	 2661.83
     18.5330	 3100.00	 3232.87	-1509.12	 2667.11
     18.5590	 3027.00	 3236.49	-1585.74	 2672.37
     18.5850	 3098.00	 3239.99	-1518.24	 2677.63
     18.6110	 3091.00	 3243.35	-1528.60	 2682.87
     18.6370	 3115.00	 3246.60	-1507.85	 2688.11
     18.6630	 3149.00	 3249.73	-1476.98	 2693.33
     18.6890	 3138.00	 3252.76	-1491.01	 2698.55
     18.7150	 3087.00	 3255.69	-1544.94	 2703.75
     18.7410	 3062.00	 3258.52	-1572.77	 2708.93
     18.7670	 3124.00	 3261.27	-1513.52	 2714.11
     18.7930	 3075.00	 3263.94	-1565.19	 2719.27
     18.8190	 3100.00	 3266.54	-1542.79	 2724.41
     18.8450	 3137.00	 3269.08	-1508.33	 2729.55
     18.8710	 3125.00	 3271.55	-1522.80	 2734.66
     18.8970	 3114.00	 3273.97	-1536.22	 2739.76
     18.9230	 3087.00	 3276.34	-1565.59	 2744.85
     18.9490	 3168.00	 3278.67	-1486.92	 2749.92
     18.9750	 3118.00	 3280.97	-1539.22	 2754.97
     19.0010	 3130.00	 3283.23	-1529.48	 2760.01
     19.0270	 3137.00	 3285.47	-1524.72	 2765.02
     19.0530	 3078.00	 3287.69	-1585.94	 2770.03
     19.0790	 3016.00	 3289.88	-1650.13	 2775.01
     19.1050	 2995.00	 3292.07	-1673.32	 2779.97
     19.1310	 3054.00	 3294.25	-1616.50	 2784.92
     19.1570	 3053.00	 3296.41	-1619.66	 2789.84
     19.1830	 3127.00	 3298.58	-1547.83	 2794.75
     19.2090	 3157.00	 3300.75	-1520.00	 2799.63
     19.2350	 3106.00	 3302.92	-1573.17	 2804.50
     19.2610	 3082.00	 3305.09	-1599.34	 2809.34
     19.2870	 3090.00	 3307.28	-1593.53	 2814.17
     19.3130	 3094.00	 3309.47	-1591.72	 2818.97
     19.3390	 3123.00	 3311.67	-1564.92	 2823.75
     19.3650	 3148.00	 3313.89	-1542.14	 2828.51
     19.3910	 3127.00	 3316.11	-1565.36	 2833.25
     19.4170	 3136.00	 3318.36	-1558.61	 2837.96
     19.4430	 3098.00	 3320.62	-1598.87	 2842.66
     19.4690	 3039.00	 3322.89	-1660.14	 2847.32
     19.4950	 3034.00	 3325.19	-1667.44	 2851.97
     19.5210	 3018.00	 3327.50	-1685.75	 2856.59
     19.5470	 3085.00	 3329.83	-1621.08	 2861.19
     19.5730	 3159.00	 3332.17	-1549.42	 2865.76
     19.5990	 3152.00	 3334.54	-1558.79	 2870.31
     19.6250	 3139.00	 3336.92	-1574.17	 2874.84
     19.6510	 3157.00	 3339.32	-1558.57	 2879.34
     19.6770	 3182.00	 3341.74	-1535.99	 2883.82
     19.7030	 3112.00	 3344.18	-1608.43	 2888.27
     19.7290	 3104.00	 3346.63	-1618.88	 2892.69
     19.7550	 3120.00	 3349.11	-1605.36	 2897.09
     19.7810	 3178.00	 3351.59	-1549.84	 2901.46
     19.8070	 3150.00	 3354.10	-1580.35	 2905.81
     19.8330	 3093.00	 3356.61	-1639.86	 2910.13
     19.8590	 3136.00	 3359.15	-1599.40	 2914.42
     19.8850	 3210.00	 3361.70	-1527.95	 2918.69
     19.9110	 3208.00	 3364.26	-1532.51	 2922.93
     19.9370	 3167.00	 3366.83	-1576.08	 2927.15
     19.9630	 3223.00	 3369.42	-1522.67	 2931.33
     19.9890	 3215.00	 3372.01	-1533.26	 2935.49
     20.0150	 3202.00	 3374.62	-1548.87	 2939.62
     20.0410	 3178.00	 3377.24	-1575.49	 2943.73
     20.0670	 3160.00	 3379.86	-1596.11	 2947.80
     20.0930	 3224.00	 3382.49	-1534.74	 2951.85
     20.1190	 3267.00	 3385.14	-1494.39	 2955.87
     20.1450	 3238.00	 3387.78	-1526.03	 2959.86
     20.1710	 3192.00	 3390.44	-1574.69	 2963.82
     20.1970	 3211.00	 3393.09	-1558.34	 2967.76
     20.2230	 3212.00	 3395.76	-1560.01	 2971.66
     20.2490	 3153.00	 3398.42	-1621.67	 2975.54
     20.2750	 3133.00	 3401.09	-1644.34	 2979.39
     20.3010	 3140.00	 3403.76	-1640.01	 2983.21
     20.3270	 3157.00	 3406.43	-1625.68	 2986.99
     20.3530	 3209.00	 3409.11	-1576.36	 2990.75
     20.3790	 3199.00	 3411.78	-1589.03	 2994.48
     20.4050	 3320.00	 3414.45	-1470.70	 2998.19
     20.4310	 3252.00	 3417.12	-1541.37	 3001.86
     20.4570	 3290.00	 3419.78	-1506.03	 3005.50
     20.4830	 3356.00	 3422.45	-1442.70	 3009.11
     20.5090	 3144.00	 3425.11	-1657.36	 3012.69
     20.5350	 3292.00	 3427.76	-1512.01	 3016.24
     20.5610	 3185.00	 3430.41	-1621.66	 3019.77
     20.5870	 3238.00	 3433.06	-1571.31	 3023.26
     20.6130	 3281.00	 3435.69	-1530.94	 3026.72
     20.6390	 3371.00	 3438.33	-1443.58	 3030.15
     20.6650	 3316.00	 3440.95	-1501.20	 3033.55
     20.6910	 3164.00	 3443.57	-1655.82	 3036.92
     20.7170	 3333.00	 3446.17	-1489.42	 3040.26
     20.7430	 3367.00	 3448.77	-1458.02	 3043.57
     20.7690	 3300.00	 3451.36	-1527.61	 3046.85
     20.7950	 3242.00	 3453.94	-1588.19	 3050.10
     20.8210	 3256.00	 3456.51	-1576.76	 3053.32
     20.8470	 3231.00	 3459.07	-1604.32	 3056.51
     20.8730	 3257.00	 3461.61	-1580.86	 3059.66
     20.8990	 3321.00	 3464.15	-1519.40	 3062.79
     20.9250	 3208.00	 3466.67	-1634.92	 3065.88
     20.9510	 3373.00	 3469.17	-1472.42	 3068.95
     20.9770	 3213.00	 3471.67	-1634.92	 3071.98
     21.0030	 3259.00	 3474.15	-1591.40	 3074.98
     21.0290	 3276.00	 3476.62	-1576.87	 3077.95
     21.0550	 3159.00	 3479.07	-1696.32	 3080.89
     21.0810	 3268.00	 3481.51	-1589.76	 3083.80
     21.1070	 3326.00	 3483.93	-1534.18	 3086.68
     21.1330	 3313.00	 3486.34	-1549.59	 3089.53
     21.1590	 3310.00	 3488.73	-1554.98	 3092.34
     21.1850	 3189.00	 3491.10	-1678.35	 3095.13
     21.2110	 3348.00	 3493.46	-1521.71	 3097.88
     21.2370	 3277.00	 3495.80	-1595.05	 3100.61
     21.2630	 3305.00	 3498.13	-1569.38	 3103.30
     21.2890	 3363.00	 3500.44	-1513.69	 3105.96
     21.3150	 3375.00	 3502.73	-1503.98	 3108.59
     21.3410	 3380.00	 3505.00	-1501.25	 3111.19
     21.3670	 3311.00	 3507.25	-1572.50	 3113.76
     21.3930	 3291.00	 3509.49	-1594.74	 3116.30
     21.4190	 3299.00	 3511.70	-1588.95	 3118.80
     21.4450	 3310.00	 3513.90	-1580.15	 3121.28
     21.4710	 3276.00	 3516.08	-1616.33	 3123.72
     21.4970	 3360.00	 3518.24	-1534.49	 3126.14
     21.5230	 3322.00	 3520.38	-1574.63	 3128.52
     21.5490	 3403.00	 3522.50	-1495.75	 3130.87
     21.5750	 3404.00	 3524.60	-1496.85	 3133.19
     21.6010	 3379.00	 3526.69	-1523.94	 3135.48
     21.6270	 3384.00	 3528.75	-1521.00	 3137.74
     21.6530	 3388.00	 3530.79	-1519.04	 3139.97
     21.6790	 3346.00	 3532.81	-1563.06	 3142.17
     21.7050	 3388.00	 3534.81	-1523.06	 3144.34
     21.7310	 3370.00	 3536.79	-1543.04	 3146.47
     21.7570	 3374.00	 3538.75	-1541.00	 3148.58
     21.7830	 3354.00	 3540.68	-1562.93	 3150.66
     21.8090	 3324.00	 3542.60	-1594.85	 3152.70
     21.8350	 3356.00	 3544.50	-1564.75	 3154.72
     21.8610	 3402.00	 3546.37	-1520.62	 3156.70
     21.8870	 3389.00	 3548.22	-1535.47	 3158.65
     21.9130	 3373.00	 3550.06	-1553.31	 3160.58
     21.9390	 3425.00	 3551.87	-1503.12	 3162.47
     21.9650	 3436.00	 3553.65	-1493.90	 3164.33
     21.9910	 3393.00	 3555.42	-1538.67	 3166.17
     22.0170	 3413.00	 3557.17	-1520.42	 3167.97
     22.0430	 3483.00	 3558.89	-1452.14	 3169.74
     22.0690	 3505.00	 3560.59	-1431.84	 3171.48
     22.0950	 3432.00	 3562.27	-1506.52	 3173.20
     22.1210	 3394.00	 3563.93	-1546.18	 3174.88
     22.1470	 3439.00	 3565.57	-1502.82	 3176.53
     22.1730	 3414.00	 3567.18	-1529.43	 3178.16
     22.1990	 3414.00	 3568.77	-1531.02	 3179.75
     22.2250	 3434.00	 3570.34	-1512.59	 3181.32
     22.2510	 3400.00	 3571.89	-1548.14	 3182.85
     22.2770	 3448.00	 3573.42	-1501.67	 3184.36
     22.3030	 3425.00	 3574.92	-1526.17	 3185.83
     22.3290	 3367.00	 3576.41	-1585.66	 3187.28
     22.3550	 3405.00	 3577.87	-1549.12	 3188.69
     22.3810	 3461.00	 3579.30	-1494.55	 3190.08
     22.4070	 3487.00	 3580.72	-1469.97	 3191.44
     22.4330	 3463.00	 3582.11	-1495.36	 3192.77
     22.4590	 3451.00	 3583.49	-1508.74	 3194.07
     22.4850	 3406.00	 3584.83	-1555.08	 3195.34
     22.5110	 3543.00	 3586.16	-1419.41	 3196.59
     22.5370	 3467.00	 3587.47	-1496.72	 3197.80
     22.5630	 3502.00	 3588.75	-1463.00	 3198.99
     22.5890	 3539.00	 3590.01	-1427.26	 3200.14
     22.6150	 3466.00	 3591.25	-1501.50	 3201.27
     22.6410	 3324.00	 3592.47	-1644.72	 3202.37
     22.6670	 3427.00	 3593.67	-1542.92	 3203.45
     22.6930	 3510.00	 3594.84	-1461.09	 3204.49
     22.7190	 3556.00	 3596.00	-1416.25	 3205.50
     22.7450	 3486.00	 3597.13	-1487.38	 3206.49
     22.7710	 3460.00	 3598.24	-1514.49	 3207.45
     22.7970	 3548.00	 3599.32	-1427.57	 3208.38
     22.8230	 3457.00	 3600.39	-1519.64	 3209.29
     22.8490	 3556.00	 3601.44	-1421.69	 3210.16
     22.8750	 3532.00	 3602.46	-1446.71	 3211.01
     22.9010	 3521.00	 3603.46	-1458.71	 3211.83
     22.9270	 3527.00	 3604.44	-1453.69	 3212.63
     22.9530	 3516.00	 3605.40	-1465.65	 3213.39
     22.9790	 3468.00	 3606.34	-1514.59	 3214.13
     23.0050	 3508.00	 3607.26	-1475.51	 3214.84
     23.0310	 3540.00	 3608.15	-1444.40	 3215.53
     23.0570	 3465.00	 3609.03	-1520.28	 3216.19
     23.0830	 3424.00	 3609.88	-1562.13	 3216.82
     23.1090	 3569.00	 3610.72	-1417.97	 3217.42
     23.1350	 3550.00	 3611.53	-1437.78	 3218.00
     23.1610	 3564.00	 3612.32	-1424.57	 3218.55
     23.1870	 3545.00	 3613.10	-1444.35	 3219.08
     23.2130	 3610.00	 3613.85	-1380.10	 3219.57
     23.2390	 3605.00	 3614.58	-1385.83	 3220.05
     23.2650	 3534.00	 3615.29	-1457.54	 3220.49
     23.2910	 3510.00	 3615.98	-1482.23	 3220.91
     23.3170	 3570.00	 3616.65	-1422.90	 3221.31
     23.3430	 3567.00	 3617.30	-1426.55	 3221.67
     23.3690	 3534.00	 3617.94	-1460.19	 3222.02
     23.3950	 3525.00	 3618.55	-1469.80	 3222.33
     23.4210	 3588.00	 3619.14	-1407.39	 3222.62
     23.4470	 3551.00	 3619.71	-1444.96	 3222.89
     23.4730	 3583.00	 3620.27	-1413.52	 3223.13
     23.4990	 3668.00	 3620.80	-1329.05	 3223.34
     23.5250	 3602.00	 3621.32	-1395.57	 3223.53
     23.5510	 3589.00	 3621.81	-1409.06	 3223.70
     23.5770	 3558.00	 3622.29	-1440.54	 3223.83
     23.6030	 3495.00	 3622.75	-1504.00	 3223.95
     23.6290	 3653.00	 3623.19	-1346.44	 3224.04
     23.6550	 3521.00	 3623.61	-1478.86	 3224.10
     23.6810	 3456.00	 3624.02	-1544.27	 3224.15
     23.7070	 3536.00	 3624.40	-1464.65	 3224.16
     23.7330	 3661.00	 3624.77	-1340.02	 3224.15
     23.7590	 3672.00	 3625.12	-1329.37	 3224.12
     23.7850	 3601.00	 3625.45	-1400.70	 3224.06
     23.8110	 3665.00	 3625.76	-1337.01	 3223.98
     23.8370	 3626.00	 3626.06	-1376.31	 3223.88
     23.8630	 3584.00	 3626.34	-1418.59	 3223.75
     23.8890	 3627.00	 3626.60	-1375.85	 3223.60
     23.9150	 3564.00	 3626.84	-1439.09	 3223.42
     23.9410	 3622.00	 3627.07	-1381.32	 3223.22
     23.9670	 3677.00	 3627.28	-1326.53	 3223.00
     23.9930	 3642.00	 3627.47	-1361.72	 3222.76
     24.0190	 3631.00	 3627.65	-1372.90	 3222.49
     24.0450	 3681.00	 3627.81	-1323.06	 3222.19
     24.0710	 3606.00	 3627.96	-1398.21	 3221.88
     24.0970	 3637.00	 3628.09	-1367.34	 3221.54
     24.1230	 3647.00	 3628.20	-1357.45	 3221.18
     24.1490	 3664.00	 3628.30	-1340.55	 3220.80
     24.1750	 3633.00	 3628.38	-1371.63	 3220.39
     24.2010	 3700.00	 3628.44	-1304.69	 3219.96
     24.2270	 3658.00	 3628.49	-1346.74	 3219.51
     24.2530	 3582.00	 3628.53	-1422.78	 3219.04
     24.2790	 3637.00	 3628.55	-1367.80	 3218.55
     24.3050	 3604.00	 3628.56	-1400.81	 3218.03
     24.3310	 3627.00	 3628.55	-1377.80	 3217.49
     24.3570	 3610.00	 3628.53	-1394.78	 3216.93
     24.3830	 3547.00	 3628.49	-1457.74	 3216.35
     24.4090	 3591.00	 3628.44	-1413.69	 3215.75
     24.4350	 3597.00	 3628.37	-1407.62	 3215.12
     24.4610	 3620.00	 3628.30	-1384.55	 3214.47
     24.4870	 3619.00	 3628.20	-1385.45	 3213.81
     24.5130	 3605.00	 3628.10	-1399.35	 3213.12
     24.5390	 3647.00	 3627.98	-1357.23	 3212.41
     24.5650	 3656.00	 3627.85	-1348.10	 3211.68
     24.5910	 3667.00	 3627.71	-1336.96	 3210.92
     24.6170	 3614.00	 3627.55	-1389.80	 3210.15
     24.6430	 3581.00	 3627.38	-1422.63	 3209.36
     24.6690	 3615.00	 3627.20	-1388.45	 3208.55
     24.6950	 3598.00	 3627.01	-1405.26	 3207.71
     24.7210	 3564.00	 3626.80	-1439.05	 3206.86
     24.7470	 3589.00	 3626.59	-1413.84	 3205.98
     24.7730	 3586.00	 3626.36	-1416.61	 3205.09
     24.7990	 3580.00	 3626.12	-1422.37	 3204.17
     24.8250	 3632.00	 3625.87	-1370.12	 3203.24
     24.8510	 3589.00	 3625.61	-1412.86	 3202.29
     24.8770	 3617.00	 3625.34	-1384.59	 3201.31
     24.9030	 3659.00	 3625.06	-1342.31	 3200.32
     24.9290	 3613.00	 3624.77	-1388.02	 3199.31
     24.9550	 3626.00	 3624.47	-1374.72	 3198.27
     24.9810	 3644.00	 3624.16	-1356.41	 3197.22
     25.0070	 3603.00	 3623.85	-1397.10	 3196.15
     25.0330	 3580.00	 3623.52	-1419.77	 3195.06
     25.0590	 3625.00	 3623.18	-1374.43	 3193.95
     25.0850	 3695.00	 3622.84	-1304.09	 3192.83
     25.1110	 3716.00	 3622.49	-1282.74	 3191.68
     25.1370	 3708.00	 3622.12	-1290.37	 3190.52
     25.1630	 3696.00	 3621.76	-1302.01	 3189.33
     25.1890	 3713.00	 3621.38	-1284.63	 3188.13
     25.2150	 3734.00	 3621.00	-1263.25	 3186.91
     25.2410	 3614.00	 3620.61	-1382.86	 3185.67
     25.2670	 3614.00	 3620.21	-1382.46	 3184.42
     25.2930	 3686.00	 3619.80	-1310.05	 3183.14
     25.3190	 3698.00	 3619.39	-1297.64	 3181.85
     25.3450	 3685.00	 3618.98	-1310.23	 3180.54
     25.3710	 3626.00	 3618.56	-1368.81	 3179.21
     25.3970	 3713.00	 3618.13	-1281.38	 3177.87
     25.4230	 3612.00	 3617.70	-1381.95	 3176.51
     25.4490	 3635.00	 3617.26	-1358.51	 3175.13
     25.4750	 3642.00	 3616.82	-1351.07	 3173.73
     25.5010	 3619.00	 3616.38	-1373.63	 3172.31
     25.5270	 3604.00	 3615.93	-1388.18	 3170.88
     25.5530	 3638.00	 3615.48	-1353.73	 3169.43
     25.5790	 3559.00	 3615.02	-1432.27	 3167.97
     25.6050	 3653.00	 3614.56	-1337.81	 3166.49
     25.6310	 3638.00	 3614.10	-1352.35	 3164.99
     25.6570	 3619.00	 3613.64	-1370.89	 3163.47
     25.6830	 3597.00	 3613.17	-1392.42	 3161.94
     25.7090	 3549.00	 3612.71	-1439.96	 3160.39
     25.7350	 3596.00	 3612.24	-1392.49	 3158.83
     25.7610	 3697.00	 3611.77	-1291.02	 3157.24
     25.7870	 3736.00	 3611.30	-1251.55	 3155.65
     25.8130	 3574.00	 3610.83	-1413.08	 3154.03
     25.8390	 3543.00	 3610.36	-1443.61	 3152.40
     25.8650	 3666.00	 3609.90	-1320.15	 3150.76
     25.8910	 3652.00	 3609.43	-1333.68	 3149.10
     25.9170	 3527.00	 3608.96	-1458.21	 3147.42
     25.9430	 3583.00	 3608.50	-1401.75	 3145.73
     25.9690	 3614.00	 3608.04	-1370.29	 3144.02
     25.9950	 3572.00	 3607.58	-1411.83	 3142.30
     26.0210	 3629.00	 3607.13	-1354.38	 3140.56
     26.0470	 3525.00	 3606.67	-1457.92	 3138.81
     26.0730	 3675.00	 3606.23	-1307.48	 3137.04
     26.0990	 3587.00	 3605.78	-1395.03	 3135.26
     26.1250	 3574.00	 3605.35	-1407.60	 3133.46
     26.1510	 3673.00	 3604.91	-1308.16	 3131.65
     26.1770	 3585.00	 3604.49	-1395.74	 3129.82
     26.2030	 3588.00	 3604.06	-1392.31	 3127.98
     26.2290	 3621.00	 3603.65	-1358.90	 3126.12
     26.2550	 3578.00	 3603.24	-1401.49	 3124.25
     26.2810	 3664.00	 3602.85	-1315.10	 3122.36
     26.3070	 3657.00	 3602.46	-1321.71	 3120.46
     26.3330	 3774.00	 3602.07	-1204.32	 3118.55
     26.3590	 3600.00	 3601.70	-1377.95	 3116.62
     26.3850	 3507.00	 3601.34	-1470.59	 3114.68
     26.4110	 3589.00	 3600.99	-1388.24	 3112.72
     26.4370	 3611.00	 3600.65	-1365.90	 3110.75
     26.4630	 3546.00	 3600.32	-1430.57	 3108.77
     26.4890	 3595.00	 3600.00	-1381.25	 3106.77
     26.5150	 3627.00	 3599.70	-1348.95	 3104.76
     26.5410	 3718.00	 3599.41	-1257.66	 3102.74
     26.5670	 3624.00	 3599.14	-1351.39	 3100.70
     26.5930	 3629.00	 3598.87	-1346.12	 3098.65
     26.6190	 3783.00	 3598.63	-1191.88	 3096.58
     26.6450	 3679.00	 3598.40	-1295.65	 3094.51
     26.6710	 3655.00	 3598.19	-1319.44	 3092.42
     26.6970	 3655.00	 3597.99	-1319.24	 3090.31
     26.7230	 3660.00	 3597.82	-1314.07	 3088.20
     26.7490	 3637.00	 3597.66	-1336.91	 3086.07
     26.7750	 3636.00	 3597.53	-1337.78	 3083.93
     26.8010	 3554.00	 3597.41	-1419.66	 3081.77
     26.8270	 3592.00	 3597.32	-1381.57	 3079.61
     26.8530	 3582.00	 3597.24	-1391.49	 3077.43
     26.8790	 3607.00	 3597.19	-1366.44	 3075.24
     26.9050	 3630.00	 3597.17	-1343.42	 3073.03
     26.9310	 3618.00	 3597.17	-1355.42	 3070.82
     26.9570	 3623.00	 3597.20	-1350.45	 3068.59
     26.9830	 3593.00	 3597.25	-1380.50	 3066.35
     27.0090	 3569.00	 3597.33	-1404.58	 3064.10
     27.0350	 3593.00	 3597.44	-1380.69	 3061.84
     27.0610	 3604.00	 3597.57	-1369.82	 3059.56
     27.0870	 3622.00	 3597.74	-1351.99	 3057.27
     27.1130	 3590.00	 3597.94	-1384.19	 3054.97
     27.1390	 3580.00	 3598.18	-1394.43	 3052.66
     27.1650	 3658.00	 3598.44	-1316.69	 3050.34
     27.1910	 3636.00	 3598.74	-1338.99	 3048.01
     27.2170	 3636.00	 3599.08	-1339.33	 3045.67
     27.2430	 3681.00	 3599.45	-1294.70	 3043.31
     27.2690	 3653.00	 3599.87	-1323.12	 3040.94
     27.2950	 3643.00	 3600.32	-1333.57	 3038.57
     27.3210	 3640.00	 3600.81	-1337.06	 3036.18
     27.3470	 3624.00	 3601.34	-1353.59	 3033.78
     27.3730	 3654.00	 3601.92	-1324.17	 3031.37
     27.3990	 3684.00	 3602.54	-1294.79	 3028.95
     27.4250	 3703.00	 3603.21	-1276.46	 3026.51
     27.4510	 3716.00	 3603.92	-1264.17	 3024.07
     27.4770	 3665.00	 3604.69	-1315.94	 3021.62
     27.5030	 3658.00	 3605.50	-1323.75	 3019.16
     27.5290	 3681.00	 3606.36	-1301.61	 3016.68
     27.5550	 3672.00	 3607.28	-1311.53	 3014.20
     27.5810	 3578.00	 3608.25	-1406.50	 3011.70
     27.6070	 3492.00	 3609.27	-1493.52	 3009.20
     27.6330	 3595.00	 3610.36	-1391.61	 3006.68
     27.6590	 3683.00	 3611.50	-1304.75	 3004.16
     27.6850	 3794.00	 3612.70	-1194.95	 3001.63
     27.7110	 3775.00	 3613.97	-1215.22	 2999.08
     27.7370	 3678.00	 3615.30	-1313.55	 2996.53
     27.7630	 3650.00	 3616.69	-1342.94	 2993.96
     27.7890	 3737.00	 3618.15	-1257.40	 2991.39
     27.8150	 3714.00	 3619.69	-1281.94	 2988.81
     27.8410	 3664.00	 3621.29	-1333.54	 2986.21
     27.8670	 3649.00	 3622.96	-1350.21	 2983.61
     27.8930	 3725.00	 3624.71	-1275.96	 2981.00
     27.9190	 3772.00	 3626.53	-1230.78	 2978.38
     27.9450	 3756.00	 3628.44	-1248.69	 2975.75
     27.9710	 3797.00	 3630.42	-1209.67	 2973.11
     27.9970	 3753.00	 3632.48	-1255.73	 2970.46
     28.0230	 3749.00	 3634.63	-1261.88	 2967.81
     28.0490	 3714.00	 3636.86	-1299.11	 2965.14
     28.0750	 3747.00	 3639.18	-1268.43	 2962.47
     28.1010	 3717.00	 3641.59	-1300.84	 2959.78
     28.1270	 3668.00	 3644.10	-1352.35	 2957.09
     28.1530	 3721.00	 3646.69	-1301.94	 2954.39
     28.1790	 3862.00	 3649.38	-1163.63	 2951.68
     28.2050	 3792.00	 3652.16	-1236.41	 2948.96
     28.2310	 3670.00	 3655.05	-1361.30	 2946.24
     28.2570	 3803.00	 3658.03	-1231.28	 2943.50
     28.2830	 3788.00	 3661.12	-1249.37	 2940.76
     28.3090	 3758.00	 3664.31	-1282.56	 2938.01
     28.3350	 3699.00	 3667.60	-1344.85	 2935.25
     28.3610	 3667.00	 3671.01	-1380.26	 2932.48
     28.3870	 3697.00	 3674.52	-1353.77	 2929.70
     28.4130	 3768.00	 3678.14	-1286.39	 2926.92
     28.4390	 3748.00	 3681.87	-1310.12	 2924.13
     28.4650	 3807.00	 3685.71	-1254.96	 2921.33
     28.4910	 3649.00	 3689.67	-1416.92	 2918.52
     28.5170	 3764.00	 3693.74	-1305.99	 2915.71
     28.5430	 3839.00	 3697.93	-1235.18	 2912.88
     28.5690	 3820.00	 3702.23	-1258.48	 2910.05
     28.5950	 3789.00	 3706.65	-1293.90	 2907.21
     28.6210	 3918.00	 3711.18	-1169.43	 2904.37
     28.6470	 3938.00	 3715.83	-1154.08	 2901.52
     28.6730	 3810.00	 3720.60	-1286.85	 2898.66
     28.6990	 3908.00	 3725.48	-1193.73	 2895.79
     28.7250	 3885.00	 3730.47	-1221.72	 2892.91
     28.7510	 3864.00	 3735.58	-1247.83	 2890.03
     28.7770	 3803.00	 3740.80	-1314.05	 2887.14
     28.8030	 3939.00	 3746.12	-1183.37	 2884.25
     28.8290	 3861.00	 3751.56	-1266.81	 2881.34
     28.8550	 3824.00	 3757.10	-1309.35	 2878.43
     28.8810	 3868.00	 3762.73	-1270.98	 2875.52
     28.9070	 3655.00	 3768.47	-1489.72	 2872.59
     28.9330	 3771.00	 3774.30	-1379.55	 2869.66
     28.9590	 3791.00	 3780.21	-1365.46	 2866.73
     28.9850	 3768.00	 3786.21	-1394.46	 2863.78
     29.0110	 3750.00	 3792.28	-1418.53	 2860.83
     29.0370	 3764.00	 3798.43	-1410.68	 2857.87
     29.0630	 3797.00	 3804.63	-1383.88	 2854.91
     29.0890	 3765.00	 3810.89	-1422.14	 2851.94
     29.1150	 3894.00	 3817.19	-1299.44	 2848.97
     29.1410	 3871.00	 3823.53	-1328.78	 2845.98
     29.1670	 3810.00	 3829.90	-1396.15	 2843.00
     29.1930	 3935.00	 3836.28	-1277.53	 2840.00
     29.2190	 3888.00	 3842.67	-1330.92	 2837.00
     29.2450	 3828.00	 3849.04	-1397.29	 2833.99
     29.2710	 3924.00	 3855.40	-1307.65	 2830.98
     29.2970	 3875.00	 3861.71	-1362.96	 2827.96
     29.3230	 3859.00	 3867.98	-1385.23	 2824.94
     29.3490	 3822.00	 3874.18	-1428.43	 2821.91
     29.3750	 3796.00	 3880.30	-1460.55	 2818.87
     29.4010	 3858.00	 3886.32	-1404.57	 2815.83
     29.4270	 3862.00	 3892.23	-1406.48	 2812.78
     29.4530	 3850.00	 3898.00	-1424.25	 2809.73
     29.4790	 3962.00	 3903.63	-1317.88	 2806.67
     29.5050	 3938.00	 3909.08	-1347.33	 2803.61
     29.5310	 3867.00	 3914.35	-1423.60	 2800.54
     29.5570	 3842.00	 3919.41	-1453.66	 2797.46
     29.5830	 3878.00	 3924.25	-1422.50	 2794.38
     29.6090	 3873.00	 3928.85	-1432.10	 2791.30
     29.6350	 3777.00	 3933.18	-1532.43	 2788.21
     29.6610	 3815.00	 3937.24	-1498.49	 2785.11
     29.6870	 3963.00	 3940.99	-1354.24	 2782.01
     29.7130	 3933.00	 3944.44	-1387.69	 2778.90
     29.7390	 3868.00	 3947.55	-1455.80	 2775.79
     29.7650	 3882.00	 3950.32	-1444.57	 2772.68
     29.7910	 3855.00	 3952.73	-1473.98	 2769.56
     29.8170	 3800.00	 3954.76	-1531.01	 2766.43
     29.8430	 3891.00	 3956.41	-1441.66	 2763.30
     29.8690	 3935.00	 3957.67	-1398.92	 2760.17
     29.8950	 3883.00	 3958.51	-1451.76	 2757.03
     29.9210	 3883.00	 3958.94	-1452.19	 2753.88
     29.9470	 3889.00	 3958.96	-1446.21	 2750.74
     29.9730	 3850.00	 3958.55	-1484.80	 2747.58
     29.9990	 3811.00	 3957.71	-1522.96	 2744.42
     30.0250	 3887.00	 3956.44	-1445.69	 2741.26
     30.0510	 3847.00	 3954.75	-1484.00	 2738.10
     30.0770	 3720.00	 3952.63	-1608.88	 2734.93
     30.1030	 3796.00	 3950.09	-1530.34	 2731.75
     30.1290	 3844.00	 3947.13	-1479.38	 2728.57
     30.1550	 3813.00	 3943.77	-1507.02	 2725.39
     30.1810	 3823.00	 3940.01	-1493.26	 2722.20
     30.2070	 3829.00	 3935.86	-1483.11	 2719.01
     30.2330	 3814.00	 3931.34	-1493.59	 2715.81
     30.2590	 3776.00	 3926.46	-1526.71	 2712.61
     30.2850	 3821.00	 3921.23	-1476.48	 2709.41
     30.3110	 3852.00	 3915.67	-1439.92	 2706.20
     30.3370	 3825.00	 3909.79	-1461.04	 2702.99
     30.3630	 3854.00	 3903.62	-1425.87	 2699.78
     30.3890	 3806.00	 3897.17	-1467.42	 2696.56
     30.4150	 3814.00	 3890.46	-1452.71	 2693.34
     30.4410	 3842.00	 3883.51	-1417.76	 2690.11
     30.4670	 3836.00	 3876.33	-1416.58	 2686.88
     30.4930	 3837.00	 3868.96	-1408.21	 2683.65
     30.5190	 3851.00	 3861.40	-1386.65	 2680.42
     30.5450	 3777.00	 3853.68	-1452.93	 2677.18
     30.5710	 3787.00	 3845.82	-1435.07	 2673.93
     30.5970	 3857.00	 3837.83	-1357.08	 2670.69
     30.6230	 3780.00	 3829.74	-1425.99	 2667.44
     30.6490	 3760.00	 3821.56	-1437.81	 2664.19
     30.6750	 3737.00	 3813.32	-1452.57	 2660.93
     30.7010	 3817.00	 3805.02	-1364.27	 2657.67
     30.7270	 3827.00	 3796.69	-1345.94	 2654.41
     30.7530	 3714.00	 3788.34	-1450.59	 2651.15
     30.7790	 3833.00	 3779.98	-1323.23	 2647.88
     30.8050	 3755.00	 3771.64	-1392.89	 2644.61
     30.8310	 3755.00	 3763.32	-1384.57	 2641.33
     30.8570	 3668.00	 3755.05	-1463.30	 2638.06
     30.8830	 3746.00	 3746.82	-1377.07	 2634.78
     30.9090	 3807.00	 3738.66	-1307.91	 2631.50
     30.9350	 3715.00	 3730.58	-1391.83	 2628.21
     30.9610	 3684.00	 3722.58	-1414.83	 2624.93
     30.9870	 3628.00	 3714.67	-1462.92	 2621.64
     31.0130	 3638.00	 3706.87	-1445.12	 2618.34
     31.0390	 3617.00	 3699.18	-1458.43	 2615.05
     31.0650	 3727.00	 3691.62	-1340.87	 2611.75
     31.0910	 3625.00	 3684.18	-1435.43	 2608.45
     31.1170	 3654.00	 3676.87	-1399.12	 2605.15
     31.1430	 3654.00	 3669.71	-1391.96	 2601.85
     31.1690	 3660.00	 3662.69	-1378.94	 2598.54
     31.1950	 3621.00	 3655.82	-1411.07	 2595.23
     31.2210	 3637.00	 3649.11	-1388.36	 2591.92
     31.2470	 3669.00	 3642.56	-1349.81	 2588.61
     31.2730	 3680.00	 3636.17	-1332.42	 2585.29
     31.2990	 3736.00	 3629.95	-1270.20	 2581.98
     31.3250	 3611.00	 3623.90	-1389.15	 2578.66
     31.3510	 3595.00	 3618.03	-1399.28	 2575.34
     31.3770	 3653.00	 3612.32	-1335.57	 2572.01
     31.4030	 3677.00	 3606.80	-1306.05	 2568.69
     31.4290	 3664.00	 3601.46	-1313.71	 2565.36
     31.4550	 3636.00	 3596.30	-1336.55	 2562.04
     31.4810	 3679.00	 3591.32	-1288.57	 2558.71
     31.5070	 3649.00	 3586.52	-1313.77	 2555.38
     31.5330	 3652.00	 3581.91	-1306.16	 2552.04
     31.5590	 3627.00	 3577.49	-1326.74	 2548.71
     31.5850	 3596.00	 3573.26	-1353.51	 2545.37
     31.6110	 3584.00	 3569.21	-1361.46	 2542.03
     31.6370	 3725.00	 3565.36	-1216.61	 2538.70
     31.6630	 3546.00	 3561.69	-1391.94	 2535.35
     31.6890	 3642.00	 3558.21	-1292.46	 2532.01
     31.7150	 3674.00	 3554.93	-1257.18	 2528.67
     31.7410	 3619.00	 3551.84	-1309.09	 2525.33
     31.7670	 3653.00	 3548.94	-1272.19	 2521.98
     31.7930	 3627.00	 3546.23	-1295.48	 2518.63
     31.8190	 3655.00	 3543.72	-1264.97	 2515.29
     31.8450	 3582.00	 3541.40	-1335.65	 2511.94
     31.8710	 3593.00	 3539.27	-1322.52	 2508.59
     31.8970	 3713.00	 3537.35	-1200.60	 2505.24
     31.9230	 3621.00	 3535.61	-1290.86	 2501.89
     31.9490	 3583.00	 3534.08	-1327.33	 2498.53
     31.9750	 3618.00	 3532.74	-1290.99	 2495.18
     32.0010	 3653.00	 3531.60	-1254.85	 2491.83
     32.0270	 3613.00	 3530.66	-1293.91	 2488.47
     32.0530	 3620.00	 3529.92	-1286.17	 2485.11
     32.0790	 3590.00	 3529.38	-1315.63	 2481.76
     32.1050	 3579.00	 3529.04	-1326.29	 2478.40
     32.1310	 3548.00	 3528.91	-1357.16	 2475.04
     32.1570	 3606.00	 3528.98	-1299.23	 2471.68
     32.1830	 3646.00	 3529.25	-1259.50	 2468.33
     32.2090	 3693.00	 3529.74	-1212.99	 2464.97
     32.2350	 3628.00	 3530.43	-1278.68	 2461.61
     32.2610	 3480.00	 3531.34	-1427.59	 2458.25
     32.2870	 3536.00	 3532.45	-1372.70	 2454.89
     32.3130	 3537.00	 3533.78	-1373.03	 2451.53
     32.3390	 3564.00	 3535.33	-1347.58	 2448.17
     32.3650	 3579.00	 3537.09	-1334.34	 2444.80
     32.3910	 3545.00	 3539.08	-1370.33	 2441.44
     32.4170	 3592.00	 3541.29	-1325.54	 2438.08
     32.4430	 3648.00	 3543.72	-1271.97	 2434.72
     32.4690	 3579.00	 3546.38	-1343.63	 2431.36
     32.4950	 3557.00	 3549.27	-1368.52	 2428.00
     32.5210	 3551.00	 3552.40	-1377.65	 2424.64
     32.5470	 3540.00	 3555.76	-1392.01	 2421.28
     32.5730	 3621.00	 3559.36	-1314.61	 2417.91
     32.5990	 3620.00	 3563.20	-1319.45	 2414.55
     32.6250	 3607.00	 3567.29	-1336.54	 2411.19
     32.6510	 3604.00	 3571.62	-1343.87	 2407.83
     32.6770	 3619.00	 3576.21	-1333.46	 2404.47
     32.7030	 3707.00	 3581.06	-1250.31	 2401.11
     32.7290	 3741.00	 3586.17	-1221.42	 2397.75
     32.7550	 3735.00	 3591.54	-1232.79	 2394.39
     32.7810	 3681.00	 3597.17	-1292.42	 2391.03
     32.8070	 3686.00	 3603.08	-1293.33	 2387.68
     32.8330	 3730.00	 3609.27	-1255.52	 2384.32
     32.8590	 3662.00	 3615.74	-1329.99	 2380.96
     32.8850	 3622.00	 3622.50	-1376.75	 2377.61
     32.9110	 3693.00	 3629.55	-1312.80	 2374.25
     32.9370	 3657.00	 3636.89	-1356.14	 2370.90
     32.9630	 3684.00	 3644.54	-1336.79	 2367.54
     32.9890	 3657.00	 3652.49	-1371.74	 2364.19
     33.0150	 3692.00	 3660.75	-1345.00	 2360.84
     33.0410	 3732.00	 3669.33	-1313.58	 2357.49
     33.0670	 3675.00	 3678.23	-1379.48	 2354.13
     33.0930	 3780.00	 3687.46	-1283.71	 2350.79
     33.1190	 3701.00	 3697.03	-1372.28	 2347.44
     33.1450	 3797.00	 3706.93	-1286.18	 2344.09
     33.1710	 3784.00	 3717.19	-1309.44	 2340.74
     33.1970	 3771.00	 3727.79	-1333.04	 2337.40
     33.2230	 3784.00	 3738.75	-1331.00	 2334.05
     33.2490	 3879.00	 3750.08	-1247.33	 2330.71
     33.2750	 3828.00	 3761.78	-1310.03	 2327.37
     33.3010	 3797.00	 3773.86	-1353.11	 2324.03
     33.3270	 3867.00	 3786.32	-1295.57	 2320.69
     33.3530	 3845.00	 3799.18	-1330.43	 2317.35
     33.3790	 3862.00	 3812.43	-1326.68	 2314.02
     33.4050	 3878.00	 3826.09	-1324.34	 2310.68
     33.4310	 3891.00	 3840.15	-1325.40	 2307.35
     33.4570	 4045.00	 3854.64	-1185.89	 2304.02
     33.4830	 3939.00	 3869.55	-1306.80	 2300.69
     33.5090	 3900.00	 3884.88	-1361.13	 2297.36
     33.5350	 3970.00	 3900.66	-1306.91	 2294.03
     33.5610	 4037.00	 3916.88	-1256.13	 2290.71
     33.5870	 4058.00	 3933.55	-1251.80	 2287.38
     33.6130	 4017.00	 3950.67	-1309.92	 2284.06
     33.6390	 4022.00	 3968.25	-1322.50	 2280.74
     33.6650	 4167.00	 3986.30	-1195.55	 2277.42
     33.6910	 4078.00	 4004.82	-1303.07	 2274.11
     33.7170	 4117.00	 4023.82	-1283.07	 2270.79
     33.7430	 4090.00	 4043.29	-1329.54	 2267.48
     33.7690	 4103.00	 4063.25	-1336.50	 2264.17
     33.7950	 4116.00	 4083.70	-1343.95	 2260.86
     33.8210	 4241.00	 4104.64	-1239.89	 2257.56
     33.8470	 4259.00	 4126.07	-1243.32	 2254.25
     33.8730	 4191.00	 4147.99	-1333.24	 2250.95
     33.8990	 4264.00	 4170.41	-1282.66	 2247.65
     33.9250	 4260.00	 4193.32	-1309.57	 2244.36
     33.9510	 4315.00	 4216.73	-1277.98	 2241.06
     33.9770	 4368.00	 4240.63	-1248.88	 2237.77
     34.0030	 4418.00	 4265.02	-1223.27	 2234.48
     34.0290	 4371.00	 4289.88	-1295.13	 2231.19
     34.0550	 4408.00	 4315.23	-1283.48	 2227.91
     34.0810	 4405.00	 4341.05	-1312.30	 2224.63
     34.1070	 4372.00	 4367.33	-1371.58	 2221.35
     34.1330	 4443.00	 4394.06	-1327.31	 2218.07
     34.1590	 4640.00	 4421.24	-1157.49	 2214.79
     34.1850	 4573.00	 4448.84	-1252.09	 2211.52
     34.2110	 4549.00	 4476.85	-1304.10	 2208.25
     34.2370	 4615.00	 4505.25	-1266.50	 2204.99
     34.2630	 4592.00	 4534.03	-1318.28	 2201.72
     34.2890	 4657.00	 4563.16	-1282.41	 2198.46
     34.3150	 4710.00	 4592.62	-1258.87	 2195.20
     34.3410	 4698.00	 4622.37	-1300.62	 2191.95
     34.3670	 4725.00	 4652.40	-1303.65	 2188.70
     34.3930	 4772.00	 4682.66	-1286.91	 2185.45
     34.4190	 4813.00	 4713.12	-1276.37	 2182.20
     34.4450	 4945.00	 4743.75	-1175.00	 2178.96
     34.4710	 4923.00	 4774.51	-1227.76	 2175.72
     34.4970	 4916.00	 4805.34	-1265.59	 2172.48
     34.5230	 4913.00	 4836.20	-1299.45	 2169.25
     34.5490	 4891.00	 4867.05	-1352.30	 2166.01
     34.5750	 4885.00	 4897.82	-1389.07	 2162.79
     34.6010	 5068.00	 4928.47	-1236.72	 2159.56
     34.6270	 5020.00	 4958.93	-1315.18	 2156.34
     34.6530	 5092.00	 4989.14	-1273.39	 2153.12
     34.6790	 5008.00	 5019.04	-1387.29	 2149.91
     34.7050	 5061.00	 5048.56	-1363.81	 2146.70
     34.7310	 5290.00	 5077.63	-1163.88	 2143.49
     34.7570	 5278.00	 5106.18	-1204.43	 2140.29
     34.7830	 5249.00	 5134.13	-1261.38	 2137.09
     34.8090	 5182.00	 5161.41	-1355.66	 2133.89
     34.8350	 5219.00	 5187.94	-1345.19	 2130.70
     34.8610	 5298.00	 5213.65	-1291.90	 2127.51
     34.8870	 5338.00	 5238.45	-1276.70	 2124.32
     34.9130	 5258.00	 5262.27	-1380.52	 2121.14
     34.9390	 5237.00	 5285.03	-1424.28	 2117.96
     34.9650	 5364.00	 5306.65	-1318.90	 2114.79
     34.9910	 5475.00	 5327.05	-1228.30	 2111.62
     35.0170	 5505.00	 5346.17	-1217.42	 2108.45
     35.0430	 5457.00	 5363.92	-1283.17	 2105.29
     35.0690	 5367.00	 5380.24	-1389.49	 2102.13
     35.0950	 5271.00	 5395.07	-1500.32	 2098.98
     35.1210	 5332.00	 5408.33	-1452.58	 2095.82
     35.1470	 5440.00	 5419.98	-1356.23	 2092.68
     35.1730	 5420.00	 5429.96	-1386.21	 2089.54
     35.1990	 5438.00	 5438.23	-1376.48	 2086.40
     35.2250	 5453.00	 5444.73	-1367.98	 2083.26
     35.2510	 5435.00	 5449.45	-1390.70	 2080.13
     35.2770	 5438.00	 5452.34	-1390.59	 2077.01
     35.3030	 5353.00	 5453.39	-1476.64	 2073.88
     35.3290	 5326.00	 5452.58	-1502.83	 2070.77
     35.3550	 5393.00	 5449.90	-1433.15	 2067.66
     35.3810	 5377.00	 5445.36	-1444.61	 2064.55
     35.4070	 5376.00	 5438.96	-1439.21	 2061.44
     35.4330	 5350.00	 5430.71	-1456.96	 2058.34
     35.4590	 5326.00	 5420.63	-1470.88	 2055.25
     35.4850	 5340.00	 5408.75	-1445.00	 2052.16
     35.5110	 5276.00	 5395.11	-1495.36	 2049.07
     35.5370	 5243.00	 5379.75	-1513.00	 2045.99
     35.5630	 5270.00	 5362.70	-1468.95	 2042.91
     35.5890	 5278.00	 5344.03	-1442.28	 2039.84
     35.6150	 5220.00	 5323.78	-1480.03	 2036.77
     35.6410	 5216.00	 5302.03	-1462.28	 2033.71
     35.6670	 5132.00	 5278.83	-1523.08	 2030.65
     35.6930	 5033.00	 5254.25	-1597.50	 2027.60
     35.7190	 5050.00	 5228.37	-1554.62	 2024.55
     35.7450	 4947.00	 5201.26	-1630.51	 2021.51
     35.7710	 4883.00	 5173.00	-1666.25	 2018.47
     35.7970	 4825.00	 5143.65	-1694.90	 2015.44
     35.8230	 4769.00	 5113.30	-1720.55	 2012.41
     35.8490	 4762.00	 5082.04	-1696.29	 2009.38
     35.8750	 4752.00	 5049.93	-1674.18	 2006.37
     35.9010	 4751.00	 5017.05	-1642.30	 2003.35
     35.9270	 4718.00	 4983.49	-1641.74	 2000.34
     35.9530	 4677.00	 4949.31	-1648.56	 1997.34
     35.9790	 4564.00	 4914.60	-1726.85	 1994.34
     36.0050	 4581.00	 4879.42	-1674.67	 1991.35
     36.0310	 4595.00	 4843.83	-1625.08	 1988.36
     36.0570	 4498.00	 4807.93	-1686.18	 1985.38
     36.0830	 4443.00	 4771.76	-1705.01	 1982.40
     36.1090	 4544.00	 4735.38	-1567.63	 1979.43
     36.1350	 4551.00	 4698.87	-1524.12	 1976.47
     36.1610	 4400.00	 4662.27	-1638.52	 1973.51
     36.1870	 4360.00	 4625.63	-1641.88	 1970.55
     36.2130	 4495.00	 4589.01	-1470.26	 1967.60
     36.2390	 4357.00	 4552.46	-1571.71	 1964.66
     36.2650	 4254.00	 4516.01	-1638.26	 1961.72
     36.2910	 4249.00	 4479.72	-1606.97	 1958.79
     36.3170	 4209.00	 4443.61	-1610.86	 1955.86
     36.3430	 4237.00	 4407.73	-1546.98	 1952.94
     36.3690	 4271.00	 4372.10	-1477.35	 1950.02
     36.3950	 4321.00	 4336.76	-1392.01	 1947.11
     36.4210	 4243.00	 4301.73	-1434.98	 1944.21
     36.4470	 4120.00	 4267.03	-1523.28	 1941.31
     36.4730	 4215.00	 4232.70	-1393.95	 1938.41
     36.4990	 4232.00	 4198.75	-1343.00	 1935.53
     36.5250	 4244.00	 4165.19	-1297.44	 1932.65
     36.5510	 4086.00	 4132.04	-1422.29	 1929.77
     36.5770	 4177.00	 4099.32	-1298.57	 1926.90
     36.6030	 4114.00	 4067.04	-1329.29	 1924.04
     36.6290	 4118.00	 4035.20	-1293.45	 1921.18
     36.6550	 4136.00	 4003.82	-1244.07	 1918.33
     36.6810	 4027.00	 3972.90	-1322.15	 1915.48
     36.7070	 4051.00	 3942.44	-1267.69	 1912.64
     36.7330	 3964.00	 3912.46	-1324.71	 1909.81
     36.7590	 4170.00	 3882.96	-1089.21	 1906.98
     36.7850	 4131.00	 3853.92	-1099.17	 1904.16
     36.8110	 4108.00	 3825.37	-1093.62	 1901.35
     36.8370	 4006.00	 3797.29	-1167.54	 1898.54
     36.8630	 3855.00	 3769.69	-1290.94	 1895.74
     36.8890	 3925.00	 3742.56	-1193.81	 1892.94
     36.9150	 3967.00	 3715.90	-1125.15	 1890.15
     36.9410	 3811.00	 3689.71	-1254.96	 1887.37
     36.9670	 3863.00	 3663.99	-1177.24	 1884.59
     36.9930	 3948.00	 3638.73	-1066.98	 1881.82
     37.0190	 3843.00	 3613.92	-1147.17	 1879.06
     37.0450	 3770.00	 3589.56	-1195.81	 1876.30
     37.0710	 3729.00	 3565.66	-1212.91	 1873.55
     37.0970	 3713.00	 3542.19	-1205.44	 1870.80
     37.1230	 3653.00	 3519.16	-1242.41	 1868.06
     37.1490	 3704.00	 3496.56	-1168.81	 1865.33
     37.1750	 3674.00	 3474.39	-1176.64	 1862.61
     37.2010	 3571.00	 3452.63	-1257.88	 1859.89
     37.2270	 3531.00	 3431.28	-1276.53	 1857.18
     37.2530	 3453.00	 3410.34	-1333.59	 1854.47
     37.2790	 3450.00	 3389.80	-1316.05	 1851.78
     37.3050	 3465.00	 3369.66	-1280.91	 1849.08
     37.3310	 3473.00	 3349.90	-1253.15	 1846.40
     37.3570	 3433.00	 3330.52	-1273.77	 1843.72
     37.3830	 3299.00	 3311.51	-1388.76	 1841.05
     37.4090	 3316.00	 3292.87	-1353.12	 1838.39
     37.4350	 3288.00	 3274.60	-1362.85	 1835.73
     37.4610	 3303.00	 3256.67	-1329.92	 1833.08
     37.4870	 3273.00	 3239.10	-1342.35	 1830.44
     37.5130	 3211.00	 3221.87	-1387.12	 1827.80
     37.5390	 3174.00	 3204.98	-1407.23	 1825.17
     37.5650	 3155.00	 3188.42	-1409.67	 1822.55
     37.5910	 3102.00	 3172.19	-1446.44	 1819.93
     37.6170	 3059.00	 3156.27	-1473.52	 1817.32
     37.6430	 3114.00	 3140.66	-1402.91	 1814.72
     37.6690	 3088.00	 3125.37	-1413.62	 1812.13
     37.6950	 3025.00	 3110.37	-1461.62	 1809.54
     37.7210	 3011.00	 3095.67	-1460.92	 1806.96
     37.7470	 3031.00	 3081.27	-1426.52	 1804.39
     37.7730	 3050.00	 3067.15	-1393.40	 1801.82
     37.7990	 2981.00	 3053.31	-1448.56	 1799.27
     37.8250	 2977.00	 3039.74	-1438.99	 1796.72
     37.8510	 3033.00	 3026.45	-1369.70	 1794.17
     37.8770	 3002.00	 3013.42	-1387.67	 1791.64
     37.9030	 2969.00	 3000.65	-1407.90	 1789.11
     37.9290	 2897.00	 2988.14	-1467.39	 1786.58
     37.9550	 2859.00	 2975.87	-1493.12	 1784.07
     37.9810	 2921.00	 2963.86	-1419.11	 1781.56
     38.0070	 2882.00	 2952.09	-1446.34	 1779.06
     38.0330	 2847.00	 2940.55	-1469.80	 1776.57
     38.0590	 2924.00	 2929.25	-1381.50	 1774.09
     38.0850	 2925.00	 2918.18	-1369.43	 1771.61
     38.1110	 2838.00	 2907.33	-1445.58	 1769.14
     38.1370	 2863.00	 2896.70	-1409.95	 1766.68
     38.1630	 2795.00	 2886.29	-1467.54	 1764.22
     38.1890	 2856.00	 2876.10	-1396.35	 1761.78
     38.2150	 2863.00	 2866.11	-1379.36	 1759.34
     38.2410	 2890.00	 2856.33	-1342.58	 1756.91
     38.2670	 2936.00	 2846.76	-1287.01	 1754.48
     38.2930	 2890.00	 2837.38	-1323.63	 1752.07
     38.3190	 2808.00	 2828.20	-1396.45	 1749.66
     38.3450	 2847.00	 2819.21	-1348.46	 1747.26
     38.3710	 2879.00	 2810.41	-1307.66	 1744.86
     38.3970	 2791.00	 2801.80	-1387.05	 1742.48
     38.4230	 2751.00	 2793.37	-1418.62	 1740.10
     38.4490	 2753.00	 2785.13	-1408.38	 1737.73
     38.4750	 2772.00	 2777.06	-1381.31	 1735.37
     38.5010	 2773.00	 2769.16	-1372.41	 1733.01
     38.5270	 2806.00	 2761.44	-1331.69	 1730.66
     38.5530	 2780.00	 2753.89	-1350.14	 1728.33
     38.5790	 2788.00	 2746.51	-1334.76	 1725.99
     38.6050	 2751.00	 2739.29	-1364.54	 1723.67
     38.6310	 2740.00	 2732.23	-1368.48	 1721.36
     38.6570	 2813.00	 2725.34	-1288.59	 1719.05
     38.6830	 2688.00	 2718.61	-1406.86	 1716.75
     38.7090	 2676.00	 2712.03	-1412.28	 1714.46
     38.7350	 2710.00	 2705.60	-1371.85	 1712.18
     38.7610	 2779.00	 2699.33	-1296.58	 1709.90
     38.7870	 2640.00	 2693.21	-1429.46	 1707.63
     38.8130	 2693.00	 2687.24	-1370.49	 1705.37
     38.8390	 2667.00	 2681.42	-1390.67	 1703.12
     38.8650	 2663.00	 2675.74	-1388.99	 1700.88
     38.8910	 2722.00	 2670.21	-1324.46	 1698.64
     38.9170	 2720.00	 2664.82	-1321.07	 1696.42
     38.9430	 2695.00	 2659.57	-1340.82	 1694.20
     38.9690	 2605.00	 2654.46	-1425.71	 1691.99
     38.9950	 2710.00	 2649.50	-1315.75	 1689.78
     39.0210	 2687.00	 2644.67	-1333.92	 1687.59
     39.0470	 2682.00	 2639.97	-1334.22	 1685.40
     39.0730	 2569.00	 2635.41	-1442.66	 1683.23
     39.0990	 2651.00	 2630.99	-1356.24	 1681.06
     39.1250	 2628.00	 2626.70	-1374.95	 1678.89
     39.1510	 2633.00	 2622.55	-1365.80	 1676.74
     39.1770	 2593.00	 2618.52	-1401.77	 1674.60
     39.2030	 2569.00	 2614.63	-1421.88	 1672.46
     39.2290	 2641.00	 2610.87	-1346.12	 1670.33
     39.2550	 2698.00	 2607.24	-1285.49	 1668.21
     39.2810	 2693.00	 2603.73	-1286.98	 1666.10
     39.3070	 2719.00	 2600.36	-1257.61	 1663.99
     39.3330	 2597.00	 2597.12	-1376.37	 1661.90
     39.3590	 2601.00	 2594.00	-1369.25	 1659.81
     39.3850	 2572.00	 2591.02	-1395.27	 1657.73
     39.4110	 2515.00	 2588.16	-1449.41	 1655.66
     39.4370	 2596.00	 2585.43	-1365.68	 1653.60
     39.4630	 2590.00	 2582.82	-1369.07	 1651.54
     39.4890	 2624.00	 2580.35	-1332.60	 1649.50
     39.5150	 2585.00	 2578.00	-1369.25	 1647.46
     39.5410	 2493.00	 2575.78	-1459.03	 1645.43
     39.5670	 2526.00	 2573.69	-1423.94	 1643.41
     39.5930	 2568.00	 2571.72	-1379.97	 1641.40
     39.6190	 2527.00	 2569.89	-1419.14	 1639.40
     39.6450	 2603.00	 2568.18	-1341.43	 1637.40
     39.6710	 2613.00	 2566.60	-1329.85	 1635.42
     39.6970	 2516.00	 2565.15	-1425.40	 1633.44
     39.7230	 2562.00	 2563.84	-1378.09	 1631.47
     39.7490	 2530.00	 2562.65	-1408.90	 1629.51
     39.7750	 2642.00	 2561.59	-1295.84	 1627.56
     39.8010	 2592.00	 2560.67	-1344.92	 1625.61
     39.8270	 2514.00	 2559.88	-1422.13	 1623.68
     39.8530	 2546.00	 2559.22	-1389.47	 1621.75
     39.8790	 2522.00	 2558.70	-1412.95	 1619.83
     39.9050	 2475.00	 2558.31	-1459.56	 1617.92
     39.9310	 2511.00	 2558.06	-1423.31	 1616.02
     39.9570	 2531.00	 2557.94	-1403.19	 1614.13
     39.9830	 2549.00	 2557.97	-1385.22	 1612.24
     40.0090	 2515.00	 2558.13	-1419.38	 1610.37
     40.0350	 2531.00	 2558.44	-1403.69	 1608.50
     40.0610	 2576.00	 2558.89	-1359.14	 1606.64
     40.0870	 2541.00	 2559.48	-1394.73	 1604.79
     40.1130	 2540.00	 2560.22	-1396.47	 1602.95
     40.1390	 2482.00	 2561.10	-1455.35	 1601.12
     40.1650	 2456.00	 2562.13	-1482.38	 1599.30
     40.1910	 2469.00	 2563.32	-1470.57	 1597.48
     40.2170	 2516.00	 2564.65	-1424.90	 1595.67
     40.2430	 2536.00	 2566.14	-1406.39	 1593.88
     40.2690	 2526.00	 2567.79	-1418.04	 1592.09
     40.2950	 2514.00	 2569.59	-1431.84	 1590.31
     40.3210	 2504.00	 2571.56	-1443.81	 1588.53
     40.3470	 2531.00	 2573.68	-1418.93	 1586.77
     40.3730	 2528.00	 2575.97	-1424.22	 1585.01
     40.3990	 2497.00	 2578.42	-1457.67	 1583.27
     40.4250	 2466.00	 2581.05	-1491.30	 1581.53
     40.4510	 2485.00	 2583.84	-1475.09	 1579.80
     40.4770	 2512.00	 2586.81	-1451.06	 1578.08
     40.5030	 2491.00	 2589.95	-1475.20	 1576.37
     40.5290	 2508.00	 2593.28	-1461.53	 1574.67
     40.5550	 2514.00	 2596.78	-1459.03	 1572.97
     40.5810	 2485.00	 2600.47	-1491.72	 1571.29
     40.6070	 2463.00	 2604.34	-1517.59	 1569.61
     40.6330	 2442.00	 2608.41	-1542.66	 1567.94
     40.6590	 2422.00	 2612.66	-1566.91	 1566.28
     40.6850	 2432.00	 2617.12	-1561.37	 1564.63
     40.7110	 2430.00	 2621.77	-1568.02	 1562.99
     40.7370	 2458.00	 2626.62	-1544.87	 1561.35
     40.7630	 2480.00	 2631.67	-1527.92	 1559.73
     40.7890	 2537.00	 2636.94	-1476.19	 1558.11
     40.8150	 2483.00	 2642.41	-1535.66	 1556.50
     40.8410	 2457.00	 2648.10	-1567.35	 1554.90
     40.8670	 2455.00	 2654.01	-1575.26	 1553.31
     40.8930	 2514.00	 2660.14	-1522.39	 1551.73
     40.9190	 2438.00	 2666.49	-1604.74	 1550.16
     40.9450	 2475.00	 2673.06	-1574.31	 1548.59
     40.9710	 2540.00	 2679.87	-1516.12	 1547.04
     40.9970	 2497.00	 2686.92	-1566.17	 1545.49
     41.0230	 2479.00	 2694.20	-1591.45	 1543.95
     41.0490	 2451.00	 2701.72	-1626.97	 1542.42
     41.0750	 2518.00	 2709.48	-1567.73	 1540.90
     41.1010	 2539.00	 2717.50	-1554.75	 1539.39
     41.1270	 2546.00	 2725.76	-1556.01	 1537.88
     41.1530	 2565.00	 2734.27	-1545.52	 1536.39
     41.1790	 2468.00	 2743.05	-1651.30	 1534.90
     41.2050	 2460.00	 2752.08	-1668.33	 1533.42
     41.2310	 2482.00	 2761.37	-1655.62	 1531.95
     41.2570	 2555.00	 2770.93	-1592.18	 1530.49
     41.2830	 2455.00	 2780.75	-1702.00	 1529.04
     41.3090	 2480.00	 2790.84	-1687.09	 1527.59
     41.3350	 2476.00	 2801.20	-1701.45	 1526.16
     41.3610	 2487.00	 2811.84	-1701.09	 1524.73
     41.3870	 2452.00	 2822.75	-1747.00	 1523.31
     41.4130	 2519.00	 2833.93	-1691.18	 1521.90
     41.4390	 2548.00	 2845.39	-1673.64	 1520.50
     41.4650	 2530.00	 2857.13	-1703.38	 1519.11
     41.4910	 2488.00	 2869.14	-1757.39	 1517.73
     41.5170	 2457.00	 2881.43	-1800.68	 1516.35
     41.5430	 2513.00	 2894.00	-1757.25	 1514.99
     41.5690	 2400.00	 2906.84	-1883.09	 1513.63
     41.5950	 2451.00	 2919.94	-1845.19	 1512.28
     41.6210	 2465.00	 2933.32	-1844.57	 1510.94
     41.6470	 2494.00	 2946.97	-1829.22	 1509.60
     41.6730	 2460.00	 2960.87	-1877.12	 1508.28
     41.6990	 2452.00	 2975.03	-1899.28	 1506.96
     41.7250	 2570.00	 2989.45	-1795.70	 1505.66
     41.7510	 2447.00	 3004.10	-1933.35	 1504.36
     41.7770	 2574.00	 3019.00	-1821.25	 1503.07
     41.8030	 2485.00	 3034.12	-1925.37	 1501.79
     41.8290	 2531.00	 3049.46	-1894.71	 1500.51
     41.8550	 2467.00	 3065.01	-1974.26	 1499.25
     41.8810	 2435.00	 3080.75	-2022.00	 1497.99
     41.9070	 2601.00	 3096.68	-1871.93	 1496.74
     41.9330	 2419.00	 3112.78	-2070.03	 1495.50
     41.9590	 2572.00	 3129.03	-1933.28	 1494.27
     41.9850	 2559.00	 3145.42	-1962.67	 1493.05
     42.0110	 2527.00	 3161.93	-2011.18	 1491.84
     42.0370	 2505.00	 3178.53	-2049.78	 1490.63
     42.0630	 2538.00	 3195.21	-2033.46	 1489.43
     42.0890	 2603.00	 3211.95	-1985.20	 1488.24
     42.1150	 2676.00	 3228.71	-1928.96	 1487.06
     42.1410	 2744.00	 3245.48	-1877.73	 1485.89
     42.1670	 2748.00	 3262.23	-1890.48	 1484.72
     42.1930	 2865.00	 3278.92	-1790.17	 1483.57
     42.2190	 2908.00	 3295.54	-1763.79	 1482.42
     42.2450	 3024.00	 3312.03	-1664.28	 1481.28
     42.2710	 3142.00	 3328.38	-1562.63	 1480.15
     42.2970	 3104.00	 3344.55	-1616.80	 1479.03
     42.3230	 3162.00	 3360.51	-1574.76	 1477.91
     42.3490	 3302.00	 3376.20	-1450.45	 1476.80
     42.3750	 3443.00	 3391.61	-1324.86	 1475.70
     42.4010	 3526.00	 3406.69	-1256.94	 1474.61
     42.4270	 3573.00	 3421.40	-1224.65	 1473.53
     42.4530	 3679.00	 3435.70	-1132.95	 1472.46
     42.4790	 3766.00	 3449.55	-1059.80	 1471.39
     42.5050	 3882.00	 3462.92	 -957.17	 1470.33
     42.5310	 4022.00	 3475.75	 -830.00	 1469.28
     42.5570	 4072.00	 3488.02	 -792.27	 1468.24
     42.5830	 4310.00	 3499.68	 -565.93	 1467.21
     42.6090	 4442.00	 3510.69	 -444.94	 1466.18
     42.6350	 4507.00	 3521.02	 -390.27	 1465.16
     42.6610	 4663.00	 3530.63	 -243.88	 1464.15
     42.6870	 4771.00	 3539.49	 -144.74	 1463.15
     42.7130	 4800.00	 3547.57	 -123.82	 1462.16
     42.7390	 4879.00	 3554.83	  -52.08	 1461.17
     42.7650	 4979.00	 3561.25	   41.50	 1460.20
     42.7910	 5100.00	 3566.80	  156.95	 1459.23
     42.8170	 5142.00	 3571.46	  194.29	 1458.26
     42.8430	 5175.00	 3575.20	  223.55	 1457.31
     42.8690	 5191.00	 3578.03	  236.72	 1456.36
     42.8950	 5246.00	 3579.91	  289.84	 1455.42
     42.9210	 5265.00	 3580.84	  307.91	 1454.49
     42.9470	 5278.00	 3580.82	  320.93	 1453.57
     42.9730	 5296.00	 3579.84	  339.91	 1452.66
     42.9990	 5250.00	 3577.90	  295.85	 1451.75
     43.0250	 5201.00	 3575.01	  249.74	 1450.85
     43.0510	 5069.00	 3571.18	  121.57	 1449.96
     43.0770	 5002.00	 3566.42	   59.33	 1449.07
     43.1030	 5052.00	 3560.74	  115.01	 1448.20
     43.1290	 4971.00	 3554.16	   40.59	 1447.33
     43.1550	 4785.00	 3546.70	 -137.95	 1446.47
     43.1810	 4697.00	 3538.39	 -217.64	 1445.61
     43.2070	 4623.00	 3529.25	 -282.50	 1444.77
     43.2330	 4509.00	 3519.31	 -386.56	 1443.93
     43.2590	 4389.00	 3508.61	 -495.86	 1443.10
     43.2850	 4168.00	 3497.18	 -705.43	 1442.27
     43.3110	 4124.00	 3485.05	 -737.30	 1441.46
     43.3370	 4008.00	 3472.25	 -840.50	 1440.65
     43.3630	 3840.00	 3458.84	 -995.09	 1439.85
     43.3890	 3819.00	 3444.85	-1002.10	 1439.05
     43.4150	 3646.00	 3430.31	-1160.56	 1438.27
     43.4410	 3454.00	 3415.26	-1337.51	 1437.49
     43.4670	 3389.00	 3399.76	-1387.01	 1436.72
     43.4930	 3335.00	 3383.83	-1425.08	 1435.95
     43.5190	 3228.00	 3367.52	-1515.77	 1435.20
     43.5450	 3143.00	 3350.87	-1584.12	 1434.45
     43.5710	 3010.00	 3333.91	-1700.16	 1433.71
     43.5970	 2969.00	 3316.69	-1723.94	 1432.97
     43.6230	 2894.00	 3299.24	-1781.49	 1432.24
     43.6490	 2891.00	 3281.60	-1766.85	 1431.52
     43.6750	 2732.00	 3263.81	-1908.06	 1430.81
     43.7010	 2652.00	 3245.89	-1970.14	 1430.10
     43.7270	 2618.00	 3227.88	-1986.13	 1429.40
     43.7530	 2618.00	 3209.82	-1968.07	 1428.71
     43.7790	 2619.00	 3191.73	-1948.98	 1428.03
     43.8050	 2572.00	 3173.64	-1977.89	 1427.35
     43.8310	 2484.00	 3155.57	-2047.82	 1426.68
     43.8570	 2586.00	 3137.56	-1927.81	 1426.01
     43.8830	 2513.00	 3119.63	-1982.88	 1425.36
     43.9090	 2531.00	 3101.80	-1947.05	 1424.71
     43.9350	 2435.00	 3084.08	-2025.33	 1424.06
     43.9610	 2433.00	 3066.51	-2009.76	 1423.43
     43.9870	 2484.00	 3049.10	-1941.35	 1422.80
     44.0130	 2425.00	 3031.86	-1983.11	 1422.17
     44.0390	 2466.00	 3014.81	-1925.06	 1421.56
     44.0650	 2469.00	 2997.97	-1905.22	 1420.95
     44.0910	 2520.00	 2981.35	-1837.60	 1420.34
     44.1170	 2523.00	 2964.95	-1818.20	 1419.75
     44.1430	 2499.00	 2948.80	-1826.05	 1419.16
     44.1690	 2426.00	 2932.89	-1883.14	 1418.58
     44.1950	 2485.00	 2917.25	-1808.50	 1418.00
     44.2210	 2490.00	 2901.87	-1788.12	 1417.43
     44.2470	 2454.00	 2886.76	-1809.01	 1416.87
     44.2730	 2558.00	 2871.93	-1690.18	 1416.31
     44.2990	 2532.00	 2857.39	-1701.64	 1415.76
     44.3250	 2427.00	 2843.14	-1792.39	 1415.22
     44.3510	 2473.00	 2829.17	-1732.42	 1414.68
     44.3770	 2443.00	 2815.50	-1748.75	 1414.15
     44.4030	 2512.00	 2802.13	-1666.38	 1413.63
     44.4290	 2449.00	 2789.06	-1716.31	 1413.11
     44.4550	 2423.00	 2776.29	-1729.54	 1412.60
     44.4810	 2421.00	 2763.82	-1719.07	 1412.09
     44.5070	 2486.00	 2751.65	-1641.90	 1411.59
     44.5330	 2452.00	 2739.78	-1664.03	 1411.10
     44.5590	 2382.00	 2728.22	-1722.47	 1410.61
     44.5850	 2416.00	 2716.96	-1677.21	 1410.13
     44.6110	 2389.00	 2705.99	-1693.24	 1409.66
     44.6370	 2374.00	 2695.33	-1697.58	 1409.19
     44.6630	 2388.00	 2684.97	-1673.22	 1408.73
     44.6890	 2430.00	 2674.90	-1621.15	 1408.27
     44.7150	 2428.00	 2665.13	-1613.38	 1407.82
     44.7410	 2492.00	 2655.65	-1539.90	 1407.38
     44.7670	 2445.00	 2646.46	-1577.71	 1406.94
     44.7930	 2452.00	 2637.57	-1561.82	 1406.51
     44.8190	 2464.00	 2628.95	-1541.20	 1406.08
     44.8450	 2424.00	 2620.63	-1572.88	 1405.66
     44.8710	 2468.00	 2612.59	-1520.84	 1405.24
     44.8970	 2462.00	 2604.83	-1519.08	 1404.83
     44.9230	 2509.00	 2597.34	-1464.59	 1404.43
     44.9490	 2397.00	 2590.13	-1569.38	 1404.03
     44.9750	 2354.00	 2583.20	-1605.45	 1403.64
     45.0010	 2352.00	 2576.53	-1600.78	 1403.25
     45.0270	 2388.00	 2570.14	-1558.39	 1402.87
     45.0530	 2450.00	 2564.01	-1490.26	 1402.50
     45.0790	 2383.00	 2558.14	-1551.39	 1402.13
     45.1050	 2361.00	 2552.53	-1567.78	 1401.76
     45.1310	 2394.00	 2547.18	-1529.43	 1401.40
     45.1570	 2393.00	 2542.09	-1525.34	 1401.05
     45.1830	 2390.00	 2537.25	-1523.50	 1400.70
     45.2090	 2400.00	 2532.66	-1508.91	 1400.36
     45.2350	 2418.00	 2528.32	-1486.57	 1400.02
     45.2610	 2383.00	 2524.23	-1517.48	 1399.69
     45.2870	 2386.00	 2520.38	-1510.63	 1399.36
     45.3130	 2438.00	 2516.77	-1455.02	 1399.04
     45.3390	 2389.00	 2513.40	-1500.65	 1398.72
     45.3650	 2387.00	 2510.26	-1499.51	 1398.41
     45.3910	 2437.00	 2507.36	-1446.61	 1398.10
     45.4170	 2392.00	 2504.69	-1488.94	 1397.80
     45.4430	 2362.00	 2502.24	-1516.49	 1397.51
     45.4690	 2357.00	 2500.02	-1519.27	 1397.22
     45.4950	 2328.00	 2498.03	-1546.28	 1396.93
     45.5210	 2340.00	 2496.25	-1532.50	 1396.65
     45.5470	 2340.00	 2494.69	-1530.94	 1396.37
     45.5730	 2357.00	 2493.35	-1512.60	 1396.10
     45.5990	 2365.00	 2492.22	-1503.47	 1395.83
     45.6250	 2369.00	 2491.29	-1498.54	 1395.57
     45.6510	 2385.00	 2490.57	-1481.82	 1395.31
     45.6770	 2345.00	 2490.05	-1521.30	 1395.06
     45.7030	 2383.00	 2489.73	-1482.98	 1394.81
     45.7290	 2398.00	 2489.60	-1467.85	 1394.57
     45.7550	 2385.00	 2489.67	-1480.92	 1394.33
     45.7810	 2380.00	 2489.91	-1486.16	 1394.09
     45.8070	 2304.00	 2490.34	-1562.59	 1393.86
     45.8330	 2359.00	 2490.95	-1508.20	 1393.64
     45.8590	 2362.00	 2491.72	-1505.97	 1393.42
     45.8850	 2338.00	 2492.67	-1530.92	 1393.20
     45.9110	 2385.00	 2493.77	-1485.02	 1392.99
     45.9370	 2410.00	 2495.02	-1461.27	 1392.78
     45.9630	 2430.00	 2496.43	-1442.68	 1392.57
     45.9890	 2421.00	 2497.98	-1453.23	 1392.38
     46.0150	 2418.00	 2499.66	-1457.91	 1392.18
     46.0410	 2424.00	 2501.47	-1453.72	 1391.99
     46.0670	 2334.00	 2503.39	-1545.64	 1391.80
     46.0930	 2360.00	 2505.43	-1521.68	 1391.62
     46.1190	 2377.00	 2507.57	-1506.82	 1391.44
     46.1450	 2290.00	 2509.81	-1596.06	 1391.26
     46.1710	 2353.00	 2512.13	-1535.38	 1391.09
     46.1970	 2415.00	 2514.52	-1475.77	 1390.93
     46.2230	 2438.00	 2516.98	-1455.23	 1390.76
     46.2490	 2333.00	 2519.48	-1562.73	 1390.60
     46.2750	 2294.00	 2522.03	-1604.28	 1390.45
     46.3010	 2365.00	 2524.61	-1535.86	 1390.30
     46.3270	 2398.00	 2527.20	-1505.45	 1390.15
     46.3530	 2417.00	 2529.80	-1489.05	 1390.00
     46.3790	 2371.00	 2532.39	-1537.64	 1389.86
     46.4050	 2346.00	 2534.96	-1565.21	 1389.73
     46.4310	 2350.00	 2537.49	-1563.74	 1389.59
     46.4570	 2388.00	 2539.98	-1528.23	 1389.46
     46.4830	 2419.00	 2542.40	-1499.65	 1389.34
     46.5090	 2436.00	 2544.74	-1484.99	 1389.21
     46.5350	 2340.00	 2546.99	-1583.24	 1389.09
     46.5610	 2370.00	 2549.13	-1555.38	 1388.98
     46.5870	 2436.00	 2551.15	-1491.40	 1388.87
     46.6130	 2264.00	 2553.04	-1665.29	 1388.76
     46.6390	 2322.00	 2554.78	-1609.03	 1388.65
     46.6650	 2273.00	 2556.36	-1659.61	 1388.55
     46.6910	 2362.00	 2557.76	-1572.01	 1388.45
     46.7170	 2306.00	 2558.97	-1629.22	 1388.35
     46.7430	 2395.00	 2559.98	-1541.23	 1388.26
     46.7690	 2337.00	 2560.77	-1600.02	 1388.17
     46.7950	 2402.00	 2561.34	-1535.59	 1388.08
     46.8210	 2362.00	 2561.68	-1575.93	 1387.99
     46.8470	 2383.00	 2561.77	-1555.02	 1387.91
     46.8730	 2397.00	 2561.60	-1540.85	 1387.83
     46.8990	 2443.00	 2561.18	-1494.43	 1387.76
     46.9250	 2372.00	 2560.48	-1564.73	 1387.69
     46.9510	 2308.00	 2559.51	-1627.76	 1387.62
     46.9770	 2332.00	 2558.26	-1602.51	 1387.55
     47.0030	 2343.00	 2556.73	-1589.98	 1387.48
     47.0290	 2348.00	 2554.91	-1583.16	 1387.42
     47.0550	 2414.00	 2552.81	-1515.06	 1387.36
     47.0810	 2330.00	 2550.41	-1596.66	 1387.30
     47.1070	 2397.00	 2547.74	-1526.99	 1387.25
     47.1330	 2439.00	 2544.78	-1482.03	 1387.20
     47.1590	 2308.00	 2541.54	-1609.79	 1387.15
     47.1850	 2349.00	 2538.02	-1565.27	 1387.10
     47.2110	 2255.00	 2534.24	-1655.49	 1387.06
     47.2370	 2333.00	 2530.19	-1573.44	 1387.02
     47.2630	 2284.00	 2525.88	-1618.13	 1386.98
     47.2890	 2360.00	 2521.33	-1537.58	 1386.94
     47.3150	 2356.00	 2516.54	-1536.79	 1386.90
     47.3410	 2355.00	 2511.52	-1532.77	 1386.87
     47.3670	 2381.00	 2506.29	-1501.54	 1386.84
     47.3930	 2323.00	 2500.84	-1554.09	 1386.81
     47.4190	 2366.00	 2495.20	-1505.45	 1386.78
     47.4450	 2339.00	 2489.38	-1526.63	 1386.76
     47.4710	 2335.00	 2483.39	-1524.64	 1386.73
     47.4970	 2414.00	 2477.23	-1439.48	 1386.71
     47.5230	 2392.00	 2470.94	-1455.19	 1386.69
     47.5490	 2401.00	 2464.51	-1439.76	 1386.68
     47.5750	 2385.00	 2457.95	-1449.20	 1386.66
     47.6010	 2348.00	 2451.30	-1479.55	 1386.65
     47.6270	 2270.00	 2444.54	-1550.79	 1386.64
     47.6530	 2282.00	 2437.71	-1531.96	 1386.63
     47.6790	 2278.00	 2430.80	-1529.05	 1386.62
     47.7050	 2297.00	 2423.83	-1503.08	 1386.61
     47.7310	 2363.00	 2416.82	-1430.07	 1386.61
     47.7570	 2390.00	 2409.77	-1396.02	 1386.60
     47.7830	 2426.00	 2402.70	-1352.95	 1386.60
     47.8090	 2358.00	 2395.61	-1413.86	 1386.60
     47.8350	 2351.00	 2388.52	-1413.77	 1386.60
     47.8610	 2363.00	 2381.43	-1394.68	 1386.60
     47.8870	 2351.00	 2374.36	-1399.61	 1386.61
     47.9130	 2340.00	 2367.31	-1403.56	 1386.61
     47.9390	 2372.00	 2360.29	-1364.54	 1386.62
     47.9650	 2392.00	 2353.31	-1337.56	 1386.62
     47.9910	 2345.00	 2346.37	-1377.62	 1386.63
     48.0170	 2354.00	 2339.49	-1361.74	 1386.64
     48.0430	 2374.00	 2332.66	-1334.91	 1386.65
     48.0690	 2325.00	 2325.90	-1377.15	 1386.66
     48.0950	 2338.00	 2319.21	-1357.46	 1386.68
     48.1210	 2319.00	 2312.59	-1369.84	 1386.69
     48.1470	 2304.00	 2306.05	-1378.30	 1386.71
     48.1730	 2324.00	 2299.59	-1351.84	 1386.72
     48.1990	 2323.00	 2293.22	-1346.47	 1386.74
     48.2250	 2368.00	 2286.94	-1295.19	 1386.76
     48.2510	 2366.00	 2280.75	-1291.00	 1386.77
     48.2770	 2361.00	 2274.66	-1289.91	 1386.79
     48.3030	 2383.00	 2268.66	-1261.91	 1386.81
     48.3290	 2384.00	 2262.76	-1255.01	 1386.83
     48.3550	 2399.00	 2256.96	-1234.21	 1386.85
     48.3810	 2345.00	 2251.27	-1282.52	 1386.88
     48.4070	 2304.00	 2245.68	-1317.93	 1386.90
     48.4330	 2314.00	 2240.19	-1302.44	 1386.92
     48.4590	 2320.00	 2234.81	-1291.06	 1386.94
     48.4850	 2433.00	 2229.53	-1172.78	 1386.97
     48.5110	 2469.00	 2224.36	-1131.61	 1386.99
     48.5370	 2323.00	 2219.30	-1272.55	 1387.02
     48.5630	 2353.00	 2214.34	-1237.59	 1387.04
     48.5890	 2400.00	 2209.49	-1185.74	 1387.07
     48.6150	 2345.00	 2204.74	-1235.99	 1387.09
     48.6410	 2400.00	 2200.10	-1176.35	 1387.12
     48.6670	 2421.00	 2195.57	-1150.82	 1387.14
     48.6930	 2384.00	 2191.14	-1183.39	 1387.17
     48.7190	 2401.00	 2186.81	-1162.06	 1387.19
     48.7450	 2407.00	 2182.59	-1151.84	 1387.22
     48.7710	 2430.00	 2178.47	-1124.72	 1387.25
     48.7970	 2431.00	 2174.45	-1119.70	 1387.27
     48.8230	 2377.00	 2170.53	-1169.78	 1387.30
     48.8490	 2340.00	 2166.72	-1202.97	 1387.33
     48.8750	 2320.00	 2163.00	-1219.25	 1387.35
     48.9010	 2402.00	 2159.38	-1133.63	 1387.38
     48.9270	 2368.00	 2155.85	-1164.10	 1387.40
     48.9530	 2386.00	 2152.42	-1142.67	 1387.43
     48.9790	 2422.00	 2149.09	-1103.34	 1387.45
     49.0050	 2460.00	 2145.85	-1062.10	 1387.48
     49.0310	 2336.00	 2142.70	-1182.95	 1387.50
     49.0570	 2386.00	 2139.64	-1129.89	 1387.53
     49.0830	 2408.00	 2136.68	-1104.93	 1387.55
     49.1090	 2467.00	 2133.80	-1043.05	 1387.57
     49.1350	 2361.00	 2131.01	-1146.26	 1387.60
     49.1610	 2414.00	 2128.31	-1090.56	 1387.62
     49.1870	 2486.00	 2125.69	-1015.94	 1387.64
     49.2130	 2374.00	 2123.16	-1125.41	 1387.66
     49.2390	 2381.00	 2120.71	-1115.96	 1387.68
     49.2650	 2404.00	 2118.34	-1090.59	 1387.70
     49.2910	 2360.00	 2116.06	-1132.31	 1387.72
     49.3170	 2325.00	 2113.86	-1165.11	 1387.74
     49.3430	 2404.00	 2111.73	-1083.98	 1387.76
     49.3690	 2404.00	 2109.69	-1081.94	 1387.78
     49.3950	 2383.00	 2107.72	-1100.97	 1387.79
     49.4210	 2496.00	 2105.84	 -986.09	 1387.81
     49.4470	 2507.00	 2104.02	 -973.27	 1387.82
     49.4730	 2463.00	 2102.29	-1015.54	 1387.84
     49.4990	 2477.00	 2100.62	 -999.87	 1387.85
     49.5250	 2480.00	 2099.03	 -995.28	 1387.86
     49.5510	 2525.00	 2097.52	 -948.77	 1387.87
     49.5770	 2470.00	 2096.08	-1002.33	 1387.88
     49.6030	 2402.00	 2094.70	-1068.95	 1387.89
     49.6290	 2457.00	 2093.40	-1012.65	 1387.90
     49.6550	 2334.00	 2092.17	-1134.42	 1387.90
     49.6810	 2404.00	 2091.01	-1063.26	 1387.91
     49.7070	 2443.00	 2089.92	-1023.17	 1387.91
     49.7330	 2437.00	 2088.90	-1028.15	 1387.91
     49.7590	 2496.00	 2087.94	 -968.19	 1387.91
     49.7850	 2478.00	 2087.05	 -985.30	 1387.91
     49.8110	 2540.00	 2086.23	 -922.48	 1387.91
     49.8370	 2365.00	 2085.48	-1096.73	 1387.91
     49.8630	 2433.00	 2084.79	-1028.04	 1387.91
     49.8890	 2498.00	 2084.17	 -962.42	 1387.90
     49.9150	 2495.00	 2083.61	 -964.86	 1387.89
     49.9410	 2509.00	 2083.12	 -950.37	 1387.88
     49.9670	 2498.00	 2082.70	 -960.95	 1387.87
     49.9930	 2495.00	 2082.34	 -963.59	 1387.86
     50.0190	 2543.00	 2082.04	 -915.29	 1387.85
     50.0450	 2569.00	 2081.81	 -889.06	 1387.83
     50.0710	 2518.00	 2081.65	 -939.90	 1387.82
     50.0970	 2461.00	 2081.54	 -996.79	 1387.80
     50.1230	 2450.00	 2081.50	-1007.75	 1387.78
     50.1490	 2460.00	 2081.53	 -997.78	 1387.76
     50.1750	 2482.00	 2081.62	 -975.87	 1387.73
     50.2010	 2433.00	 2081.77	-1025.02	 1387.71
     50.2270	 2394.00	 2081.99	-1064.24	 1387.68
     50.2530	 2426.00	 2082.28	-1032.53	 1387.65
     50.2790	 2481.00	 2082.62	 -977.87	 1387.62
     50.3050	 2452.00	 2083.04	-1007.29	 1387.59
     50.3310	 2422.00	 2083.51	-1037.76	 1387.55
     50.3570	 2443.00	 2084.05	-1017.30	 1387.51
     50.3830	 2492.00	 2084.66	 -968.91	 1387.48
     50.4090	 2500.00	 2085.33	 -961.58	 1387.43
     50.4350	 2425.00	 2086.07	-1037.32	 1387.39
     50.4610	 2417.00	 2086.88	-1046.12	 1387.35
     50.4870	 2428.00	 2087.75	-1036.00	 1387.30
     50.5130	 2462.00	 2088.68	-1002.93	 1387.25
     50.5390	 2406.00	 2089.69	-1059.94	 1387.20
     50.5650	 2429.00	 2090.76	-1038.01	 1387.14
     50.5910	 2488.00	 2091.90	 -980.15	 1387.09
     50.6170	 2464.00	 2093.11	-1005.36	 1387.03
     50.6430	 2430.00	 2094.39	-1040.64	 1386.97
     50.6690	 2388.00	 2095.74	-1083.99	 1386.91
     50.6950	 2354.00	 2097.16	-1119.41	 1386.84
     50.7210	 2387.00	 2098.65	-1087.90	 1386.77
     50.7470	 2478.00	 2100.21	 -998.46	 1386.70
     50.7730	 2477.00	 2101.85	-1001.10	 1386.63
     50.7990	 2440.00	 2103.56	-1039.81	 1386.56
     50.8250	 2478.00	 2105.34	-1003.59	 1386.48
     50.8510	 2486.00	 2107.20	 -997.45	 1386.40
     50.8770	 2444.00	 2109.13	-1041.38	 1386.32
     50.9030	 2370.00	 2111.14	-1117.39	 1386.23
     50.9290	 2336.00	 2113.23	-1153.48	 1386.14
     50.9550	 2400.00	 2115.39	-1091.64	 1386.05
     50.9810	 2390.00	 2117.64	-1103.89	 1385.96
     51.0070	 2340.00	 2119.96	-1156.21	 1385.87
     51.0330	 2371.00	 2122.36	-1127.61	 1385.77
     51.0590	 2389.00	 2124.85	-1112.10	 1385.67
     51.0850	 2403.00	 2127.42	-1100.67	 1385.56
     51.1110	 2398.00	 2130.07	-1108.32	 1385.46
     51.1370	 2395.00	 2132.81	-1114.06	 1385.35
     51.1630	 2438.00	 2135.64	-1073.89	 1385.24
     51.1890	 2418.00	 2138.55	-1096.80	 1385.12
     51.2150	 2349.00	 2141.55	-1168.80	 1385.00
     51.2410	 2394.00	 2144.64	-1126.89	 1384.88
     51.2670	 2430.00	 2147.82	-1094.07	 1384.76
     51.2930	 2416.00	 2151.09	-1111.34	 1384.64
     51.3190	 2381.00	 2154.45	-1149.70	 1384.51
     51.3450	 2297.00	 2157.90	-1237.15	 1384.37
     51.3710	 2348.00	 2161.45	-1189.70	 1384.24
     51.3970	 2379.00	 2165.10	-1162.35	 1384.10
     51.4230	 2376.00	 2168.84	-1169.09	 1383.96
     51.4490	 2285.00	 2172.68	-1263.93	 1383.82
     51.4750	 2408.00	 2176.61	-1144.86	 1383.67
     51.5010	 2342.00	 2180.65	-1214.90	 1383.52
     51.5270	 2330.00	 2184.78	-1231.03	 1383.37
     51.5530	 2370.00	 2189.02	-1195.27	 1383.21
     51.5790	 2373.00	 2193.35	-1196.60	 1383.05
     51.6050	 2334.00	 2197.79	-1240.04	 1382.89
     51.6310	 2352.00	 2202.33	-1226.58	 1382.73
     51.6570	 2313.00	 2206.98	-1270.23	 1382.56
     51.6830	 2300.00	 2211.72	-1287.97	 1382.39
     51.7090	 2361.00	 2216.57	-1231.82	 1382.21
     51.7350	 2379.00	 2221.53	-1218.78	 1382.03
     51.7610	 2421.00	 2226.58	-1181.83	 1381.85
     51.7870	 2333.00	 2231.75	-1275.00	 1381.67
     51.8130	 2271.00	 2237.01	-1342.26	 1381.48
     51.8390	 2353.00	 2242.38	-1265.63	 1381.29
     51.8650	 2350.00	 2247.85	-1274.10	 1381.10
     51.8910	 2361.00	 2253.42	-1268.67	 1380.90
     51.9170	 2315.00	 2259.09	-1320.34	 1380.70
     51.9430	 2411.00	 2264.86	-1230.11	 1380.49
     51.9690	 2318.00	 2270.73	-1328.98	 1380.28
     51.9950	 2347.00	 2276.70	-1305.95	 1380.07
     52.0210	 2324.00	 2282.76	-1335.01	 1379.86
     52.0470	 2307.00	 2288.91	-1358.16	 1379.64
     52.0730	 2444.00	 2295.15	-1227.40	 1379.42
     52.0990	 2345.00	 2301.48	-1332.73	 1379.20
     52.1250	 2433.00	 2307.89	-1251.14	 1378.97
     52.1510	 2340.00	 2314.38	-1350.63	 1378.74
     52.1770	 2386.00	 2320.94	-1311.19	 1378.50
     52.2030	 2470.00	 2327.58	-1233.83	 1378.26
     52.2290	 2389.00	 2334.28	-1321.53	 1378.02
     52.2550	 2290.00	 2341.05	-1427.30	 1377.77
     52.2810	 2331.00	 2347.87	-1393.12	 1377.53
     52.3070	 2332.00	 2354.73	-1398.98	 1377.27
     52.3330	 2349.00	 2361.65	-1388.90	 1377.02
     52.3590	 2373.00	 2368.59	-1371.84	 1376.76
     52.3850	 2316.00	 2375.57	-1435.82	 1376.49
     52.4110	 2392.00	 2382.57	-1366.82	 1376.23
     52.4370	 2374.00	 2389.58	-1391.83	 1375.96
     52.4630	 2328.00	 2396.59	-1444.84	 1375.68
     52.4890	 2342.00	 2403.60	-1437.85	 1375.40
     52.5150	 2363.00	 2410.59	-1423.84	 1375.12
     52.5410	 2394.00	 2417.55	-1399.80	 1374.84
     52.5670	 2229.00	 2424.48	-1571.73	 1374.55
     52.5930	 2271.00	 2431.36	-1536.61	 1374.26
     52.6190	 2310.00	 2438.18	-1504.43	 1373.96
     52.6450	 2301.00	 2444.93	-1520.18	 1373.66
     52.6710	 2295.00	 2451.60	-1532.85	 1373.36
     52.6970	 2386.00	 2458.18	-1448.43	 1373.05
     52.7230	 2354.00	 2464.64	-1486.89	 1372.74
     52.7490	 2349.00	 2470.98	-1498.23	 1372.43
     52.7750	 2337.00	 2477.19	-1516.44	 1372.11
     52.8010	 2298.00	 2483.26	-1561.51	 1371.79
     52.8270	 2320.00	 2489.16	-1545.41	 1371.46
     52.8530	 2315.00	 2494.90	-1556.15	 1371.13
     52.8790	 2336.00	 2500.45	-1540.70	 1370.80
     52.9050	 2380.00	 2505.80	-1502.05	 1370.46
     52.9310	 2282.00	 2510.94	-1605.19	 1370.12
     52.9570	 2273.00	 2515.86	-1619.11	 1369.78
     52.9830	 2231.00	 2520.55	-1665.80	 1369.43
     53.0090	 2237.00	 2525.00	-1664.25	 1369.08
     53.0350	 2317.00	 2529.19	-1588.44	 1368.72
     53.0610	 2336.00	 2533.12	-1573.37	 1368.36
     53.0870	 2311.00	 2536.78	-1602.03	 1368.00
     53.1130	 2298.00	 2540.16	-1618.41	 1367.63
     53.1390	 2301.00	 2543.26	-1618.51	 1367.26
     53.1650	 2246.00	 2546.06	-1676.31	 1366.89
     53.1910	 2261.00	 2548.57	-1663.82	 1366.51
     53.2170	 2314.00	 2550.77	-1613.02	 1366.13
     53.2430	 2362.00	 2552.67	-1566.92	 1365.74
     53.2690	 2334.00	 2554.27	-1596.52	 1365.35
     53.2950	 2271.00	 2555.56	-1660.81	 1364.96
     53.3210	 2216.00	 2556.55	-1716.80	 1364.56
     53.3470	 2231.00	 2557.23	-1702.48	 1364.16
     53.3730	 2283.00	 2557.61	-1650.86	 1363.75
     53.3990	 2248.00	 2557.70	-1685.95	 1363.35
     53.4250	 2210.00	 2557.50	-1723.75	 1362.93
     53.4510	 2259.00	 2557.01	-1674.26	 1362.52
     53.4770	 2260.00	 2556.24	-1672.49	 1362.10
     53.5030	 2275.00	 2555.20	-1656.45	 1361.67
     53.5290	 2308.00	 2553.90	-1622.15	 1361.24
     53.5550	 2269.00	 2552.35	-1659.60	 1360.81
     53.5810	 2255.00	 2550.56	-1671.81	 1360.38
     53.6070	 2249.00	 2548.54	-1675.79	 1359.94
     53.6330	 2257.00	 2546.31	-1665.56	 1359.49
     53.6590	 2259.00	 2543.87	-1661.12	 1359.05
     53.6850	 2224.00	 2541.24	-1693.49	 1358.60
     53.7110	 2250.00	 2538.43	-1664.68	 1358.14
     53.7370	 2295.00	 2535.46	-1616.71	 1357.68
     53.7630	 2287.00	 2532.34	-1621.59	 1357.22
     53.7890	 2277.00	 2529.08	-1628.33	 1356.75
     53.8150	 2257.00	 2525.70	-1644.95	 1356.28
     53.8410	 2270.00	 2522.21	-1628.46	 1355.81
     53.8670	 2291.00	 2518.63	-1603.88	 1355.33
     53.8930	 2221.00	 2514.97	-1670.22	 1354.85
     53.9190	 2242.00	 2511.25	-1645.50	 1354.36
     53.9450	 2321.00	 2507.47	-1562.72	 1353.88
     53.9710	 2323.00	 2503.66	-1556.91	 1353.38
     53.9970	 2290.00	 2499.83	-1586.08	 1352.89
     54.0230	 2298.00	 2495.98	-1574.23	 1352.38
     54.0490	 2296.00	 2492.13	-1572.38	 1351.88
     54.0750	 2300.00	 2488.30	-1564.55	 1351.37
     54.1010	 2214.00	 2484.49	-1646.74	 1350.86
     54.1270	 2229.00	 2480.72	-1627.97	 1350.34
     54.1530	 2273.00	 2477.00	-1580.25	 1349.83
     54.1790	 2324.00	 2473.34	-1525.59	 1349.30
     54.2050	 2289.00	 2469.74	-1556.99	 1348.78
     54.2310	 2296.00	 2466.22	-1546.47	 1348.24
     54.2570	 2335.00	 2462.79	-1504.04	 1347.71
     54.2830	 2341.00	 2459.46	-1494.71	 1347.17
     54.3090	 2291.00	 2456.23	-1541.48	 1346.63
     54.3350	 2310.00	 2453.11	-1519.36	 1346.08
     54.3610	 2306.00	 2450.11	-1520.36	 1345.53
     54.3870	 2367.00	 2447.23	-1456.48	 1344.98
     54.4130	 2369.00	 2444.49	-1451.74	 1344.43
     54.4390	 2357.00	 2441.89	-1461.14	 1343.86
     54.4650	 2299.00	 2439.43	-1516.68	 1343.30
     54.4910	 2286.00	 2437.13	-1527.38	 1342.73
     54.5170	 2391.00	 2434.98	-1420.23	 1342.16
     54.5430	 2413.00	 2432.98	-1396.23	 1341.59
     54.5690	 2318.00	 2431.16	-1489.41	 1341.01
     54.5950	 2285.00	 2429.50	-1520.75	 1340.42
     54.6210	 2333.00	 2428.01	-1471.26	 1339.84
     54.6470	 2287.00	 2426.70	-1515.95	 1339.25
     54.6730	 2398.00	 2425.57	-1403.82	 1338.66
     54.6990	 2345.00	 2424.62	-1455.87	 1338.06
     54.7250	 2428.00	 2423.86	-1372.11	 1337.46
     54.7510	 2363.00	 2423.28	-1436.53	 1336.85
     54.7770	 2356.00	 2422.89	-1443.14	 1336.25
     54.8030	 2316.00	 2422.70	-1482.95	 1335.64
     54.8290	 2350.00	 2422.70	-1448.95	 1335.02
     54.8550	 2337.00	 2422.90	-1462.15	 1334.40
     54.8810	 2329.00	 2423.29	-1470.54	 1333.78
     54.9070	 2439.00	 2423.88	-1361.13	 1333.16
     54.9330	 2373.00	 2424.67	-1427.92	 1332.53
     54.9590	 2385.00	 2425.67	-1416.92	 1331.89
     54.9850	 2418.00	 2426.86	-1385.11	 1331.26
     55.0110	 2387.00	 2428.26	-1417.51	 1330.62
     55.0370	 2461.00	 2429.86	-1345.11	 1329.98
     55.0630	 2421.00	 2431.67	-1386.92	 1329.33
     55.0890	 2356.00	 2433.68	-1453.93	 1328.68
     55.1150	 2341.00	 2435.89	-1471.14	 1328.03
     55.1410	 2384.00	 2438.30	-1430.55	 1327.37
     55.1670	 2396.00	 2440.92	-1421.17	 1326.71
     55.1930	 2444.00	 2443.75	-1376.00	 1326.05
     55.2190	 2440.00	 2446.77	-1383.02	 1325.38
     55.2450	 2377.00	 2450.00	-1449.25	 1324.71
     55.2710	 2437.00	 2453.42	-1392.67	 1324.04
     55.2970	 2398.00	 2457.05	-1435.30	 1323.36
     55.3230	 2507.00	 2460.87	-1330.12	 1322.68
     55.3490	 2476.00	 2464.89	-1365.14	 1322.00
     55.3750	 2483.00	 2469.10	-1362.35	 1321.31
     55.4010	 2455.00	 2473.50	-1394.75	 1320.63
     55.4270	 2429.00	 2478.08	-1425.33	 1319.93
     55.4530	 2381.00	 2482.85	-1478.10	 1319.24
     55.4790	 2454.00	 2487.80	-1410.05	 1318.54
     55.5050	 2473.00	 2492.93	-1396.18	 1317.84
     55.5310	 2412.00	 2498.23	-1462.48	 1317.13
     55.5570	 2442.00	 2503.70	-1437.95	 1316.42
     55.5830	 2525.00	 2509.33	-1360.58	 1315.71
     55.6090	 2508.00	 2515.12	-1383.37	 1315.00
     55.6350	 2442.00	 2521.06	-1455.31	 1314.28
     55.6610	 2459.00	 2527.14	-1444.39	 1313.56
     55.6870	 2475.00	 2533.36	-1434.61	 1312.83
     55.7130	 2496.00	 2539.71	-1419.96	 1312.11
     55.7390	 2516.00	 2546.19	-1406.44	 1311.38
     55.7650	 2534.00	 2552.77	-1395.02	 1310.64
     55.7910	 2502.00	 2559.45	-1433.70	 1309.91
     55.8170	 2453.00	 2566.23	-1489.48	 1309.17
     55.8430	 2453.00	 2573.09	-1496.34	 1308.43
     55.8690	 2532.00	 2580.03	-1424.28	 1307.68
     55.8950	 2546.00	 2587.02	-1417.27	 1306.93
     55.9210	 2510.00	 2594.05	-1460.30	 1306.18
     55.9470	 2490.00	 2601.12	-1487.37	 1305.43
     55.9730	 2545.00	 2608.21	-1439.46	 1304.68
     55.9990	 2526.00	 2615.31	-1465.56	 1303.92
     56.0250	 2520.00	 2622.39	-1478.64	 1303.15
     56.0510	 2561.00	 2629.45	-1444.70	 1302.39
     56.0770	 2567.00	 2636.46	-1445.71	 1301.62
     56.1030	 2639.00	 2643.42	-1380.67	 1300.85
     56.1290	 2612.00	 2650.30	-1414.55	 1300.08
     56.1550	 2532.00	 2657.08	-1501.33	 1299.30
     56.1810	 2549.00	 2663.75	-1491.00	 1298.53
     56.2070	 2591.00	 2670.29	-1455.54	 1297.75
     56.2330	 2593.00	 2676.68	-1459.93	 1296.96
     56.2590	 2533.00	 2682.90	-1526.15	 1296.18
     56.2850	 2584.00	 2688.93	-1481.18	 1295.39
     56.3110	 2689.00	 2694.76	-1382.01	 1294.60
     56.3370	 2702.00	 2700.35	-1374.60	 1293.80
     56.3630	 2678.00	 2705.70	-1403.95	 1293.01
     56.3890	 2673.00	 2710.79	-1414.04	 1292.21
     56.4150	 2675.00	 2715.59	-1416.84	 1291.41
     56.4410	 2651.00	 2720.09	-1445.34	 1290.60
     56.4670	 2661.00	 2724.27	-1439.52	 1289.80
     56.4930	 2624.00	 2728.12	-1480.37	 1288.99
     56.5190	 2557.00	 2731.61	-1550.86	 1288.18
     56.5450	 2550.00	 2734.74	-1560.99	 1287.37
     56.5710	 2588.00	 2737.48	-1525.73	 1286.55
     56.5970	 2627.00	 2739.83	-1489.08	 1285.73
     56.6230	 2693.00	 2741.77	-1425.02	 1284.91
     56.6490	 2633.00	 2743.29	-1486.54	 1284.09
     56.6750	 2618.00	 2744.39	-1502.64	 1283.27
     56.7010	 2653.00	 2745.04	-1468.29	 1282.44
     56.7270	 2643.00	 2745.26	-1478.51	 1281.61
     56.7530	 2673.00	 2745.03	-1448.28	 1280.78
     56.7790	 2665.00	 2744.34	-1455.59	 1279.95
     56.8050	 2644.00	 2743.20	-1475.45	 1279.11
     56.8310	 2602.00	 2741.61	-1515.86	 1278.28
     56.8570	 2594.00	 2739.56	-1521.81	 1277.44
     56.8830	 2659.00	 2737.06	-1454.31	 1276.60
     56.9090	 2754.00	 2734.12	-1356.37	 1275.75
     56.9350	 2690.00	 2730.73	-1416.98	 1274.91
     56.9610	 2625.00	 2726.91	-1478.16	 1274.06
     56.9870	 2607.00	 2722.66	-1491.91	 1273.21
     57.0130	 2576.00	 2718.00	-1518.25	 1272.36
     57.0390	 2668.00	 2712.93	-1421.18	 1271.51
     57.0650	 2671.00	 2707.47	-1412.72	 1270.65
     57.0910	 2632.00	 2701.63	-1445.88	 1269.80
     57.1170	 2673.00	 2695.43	-1398.68	 1268.94
     57.1430	 2640.00	 2688.87	-1425.12	 1268.08
     57.1690	 2708.00	 2681.98	-1350.23	 1267.22
     57.1950	 2612.00	 2674.78	-1439.03	 1266.35
     57.2210	 2651.00	 2667.27	-1392.52	 1265.49
     57.2470	 2706.00	 2659.48	-1329.73	 1264.62
     57.2730	 2727.00	 2651.43	-1300.68	 1263.75
     57.2990	 2663.00	 2643.14	-1356.39	 1262.88
     57.3250	 2657.00	 2634.62	-1353.87	 1262.01
     57.3510	 2625.00	 2625.89	-1377.14	 1261.14
     57.3770	 2583.00	 2616.97	-1410.22	 1260.26
     57.4030	 2603.00	 2607.88	-1381.13	 1259.39
     57.4290	 2626.00	 2598.63	-1348.88	 1258.51
     57.4550	 2557.00	 2589.26	-1408.51	 1257.63
     57.4810	 2672.00	 2579.76	-1284.01	 1256.75
     57.5070	 2512.00	 2570.17	-1434.42	 1255.87
     57.5330	 2541.00	 2560.49	-1395.74	 1254.98
     57.5590	 2593.00	 2550.75	-1334.00	 1254.10
     57.5850	 2625.00	 2540.96	-1292.21	 1253.21
     57.6110	 2579.00	 2531.13	-1328.38	 1252.33
     57.6370	 2585.00	 2521.28	-1312.53	 1251.44
     57.6630	 2544.00	 2511.43	-1343.68	 1250.55
     57.6890	 2645.00	 2501.58	-1232.83	 1249.66
     57.7150	 2554.00	 2491.76	-1314.01	 1248.77
     57.7410	 2639.00	 2481.96	-1219.21	 1247.87
     57.7670	 2568.00	 2472.22	-1280.47	 1246.98
     57.7930	 2661.00	 2462.52	-1177.77	 1246.09
     57.8190	 2616.00	 2452.89	-1213.14	 1245.19
     57.8450	 2652.00	 2443.34	-1167.59	 1244.29
     57.8710	 2487.00	 2433.87	-1323.12	 1243.39
     57.8970	 2489.00	 2424.49	-1311.74	 1242.50
     57.9230	 2509.00	 2415.21	-1282.46	 1241.60
     57.9490	 2534.00	 2406.04	-1248.29	 1240.69
     57.9750	 2511.00	 2396.98	-1262.23	 1239.79
     58.0010	 2477.00	 2388.05	-1287.30	 1238.89
     58.0270	 2485.00	 2379.24	-1270.49	 1237.99
     58.0530	 2510.00	 2370.56	-1236.81	 1237.08
     58.0790	 2419.00	 2362.01	-1319.26	 1236.18
     58.1050	 2528.00	 2353.60	-1201.85	 1235.27
     58.1310	 2548.00	 2345.34	-1173.59	 1234.37
     58.1570	 2500.00	 2337.22	-1213.47	 1233.46
     58.1830	 2438.00	 2329.26	-1267.51	 1232.55
     58.2090	 2412.00	 2321.44	-1285.69	 1231.64
     58.2350	 2433.00	 2313.79	-1257.04	 1230.74
     58.2610	 2431.00	 2306.28	-1251.53	 1229.83
     58.2870	 2453.00	 2298.94	-1222.19	 1228.92
     58.3130	 2408.00	 2291.75	-1260.00	 1228.01
     58.3390	 2464.00	 2284.73	-1196.98	 1227.10
     58.3650	 2414.00	 2277.87	-1240.12	 1226.19
     58.3910	 2395.00	 2271.17	-1252.42	 1225.27
     58.4170	 2427.00	 2264.63	-1213.88	 1224.36
     58.4430	 2409.00	 2258.26	-1225.51	 1223.45
     58.4690	 2403.00	 2252.06	-1225.31	 1222.54
     58.4950	 2349.00	 2246.01	-1273.26	 1221.63
     58.5210	 2298.00	 2240.13	-1318.38	 1220.71
     58.5470	 2349.00	 2234.42	-1261.67	 1219.80
     58.5730	 2402.00	 2228.87	-1203.12	 1218.89
     58.5990	 2395.00	 2223.48	-1204.73	 1217.97
     58.6250	 2362.00	 2218.25	-1232.50	 1217.06
     58.6510	 2293.00	 2213.19	-1296.44	 1216.15
     58.6770	 2298.00	 2208.29	-1286.54	 1215.23
     58.7030	 2360.00	 2203.55	-1219.80	 1214.32
     58.7290	 2354.00	 2198.97	-1221.22	 1213.41
     58.7550	 2324.00	 2194.56	-1246.81	 1212.49
     58.7810	 2317.00	 2190.30	-1249.55	 1211.58
     58.8070	 2352.00	 2186.20	-1210.45	 1210.67
     58.8330	 2337.00	 2182.26	-1221.51	 1209.75
     58.8590	 2289.00	 2178.47	-1265.72	 1208.84
     58.8850	 2271.00	 2174.84	-1280.09	 1207.93
     58.9110	 2292.00	 2171.37	-1255.62	 1207.01
     58.9370	 2331.00	 2168.05	-1213.30	 1206.10
     58.9630	 2326.00	 2164.89	-1215.14	 1205.19
     58.9890	 2346.00	 2161.88	-1192.13	 1204.28
     59.0150	 2288.00	 2159.03	-1247.28	 1203.37
     59.0410	 2300.00	 2156.32	-1232.57	 1202.45
     59.0670	 2283.00	 2153.77	-1247.02	 1201.54
     59.0930	 2277.00	 2151.37	-1250.62	 1200.63
     59.1190	 2249.00	 2149.12	-1276.37	 1199.72
     59.1450	 2235.00	 2147.02	-1288.27	 1198.81
     59.1710	 2137.00	 2145.08	-1384.33	 1197.90
     59.1970	 2176.00	 2143.28	-1343.53	 1197.00
     59.2230	 2277.00	 2141.63	-1240.88	 1196.09
     59.2490	 2281.00	 2140.13	-1235.38	 1195.18
     59.2750	 2222.00	 2138.77	-1293.02	 1194.27
     59.3010	 2194.00	 2137.57	-1319.82	 1193.37
     59.3270	 2181.00	 2136.52	-1331.77	 1192.46
     59.3530	 2253.00	 2135.61	-1258.86	 1191.56
     59.3790	 2324.00	 2134.85	-1187.10	 1190.65
     59.4050	 2175.00	 2134.24	-1335.49	 1189.75
     59.4310	 2241.00	 2133.78	-1269.03	 1188.85
     59.4570	 2188.00	 2133.47	-1321.72	 1187.95
     59.4830	 2213.00	 2133.30	-1296.55	 1187.05
     59.5090	 2190.00	 2133.29	-1319.54	 1186.15
     59.5350	 2175.00	 2133.42	-1334.67	 1185.25
     59.5610	 2165.00	 2133.71	-1344.96	 1184.35
     59.5870	 2242.00	 2134.14	-1268.39	 1183.45
     59.6130	 2224.00	 2134.73	-1286.98	 1182.56
     59.6390	 2172.00	 2135.46	-1339.71	 1181.66
     59.6650	 2215.00	 2136.35	-1297.60	 1180.77
     59.6910	 2242.00	 2137.39	-1271.64	 1179.88
     59.7170	 2200.00	 2138.59	-1314.84	 1178.99
     59.7430	 2169.00	 2139.93	-1347.18	 1178.09
     59.7690	 2178.00	 2141.44	-1339.69	 1177.21
     59.7950	 2153.00	 2143.09	-1366.34	 1176.32
     59.8210	 2142.00	 2144.91	-1379.16	 1175.43
     59.8470	 2135.00	 2146.88	-1388.13	 1174.55
     59.8730	 2097.00	 2149.01	-1428.26	 1173.66
     59.8990	 2144.00	 2151.30	-1383.55	 1172.78
     59.9250	 2126.00	 2153.76	-1404.01	 1171.90
     59.9510	 2186.00	 2156.37	-1346.62	 1171.02
     59.9770	 2117.00	 2159.15	-1418.40	 1170.14
     60.0030	 2189.00	 2162.09	-1349.34	 1169.26
     60.0290	 2247.00	 2165.20	-1294.45	 1168.38
     60.0550	 2223.00	 2168.47	-1321.72	 1167.51
     60.0810	 2156.00	 2171.92	-1392.17	 1166.64
     60.1070	 2148.00	 2175.53	-1403.78	 1165.76
     60.1330	 2158.00	 2179.32	-1397.57	 1164.89
     60.1590	 2129.00	 2183.28	-1430.53	 1164.03
     60.1850	 2118.00	 2187.41	-1445.66	 1163.16
     60.2110	 2172.00	 2191.72	-1395.97	 1162.29
     60.2370	 2143.00	 2196.21	-1429.46	 1161.43
     60.2630	 2177.00	 2200.88	-1400.13	 1160.57
     60.2890	 2204.00	 2205.72	-1377.97	 1159.71
     60.3150	 2180.00	 2210.75	-1407.00	 1158.85
     60.3410	 2173.00	 2215.96	-1419.21	 1157.99
     60.3670	 2128.00	 2221.36	-1469.61	 1157.14
     60.3930	 2118.00	 2226.95	-1485.20	 1156.28
     60.4190	 2174.00	 2232.72	-1434.97	 1155.43
     60.4450	 2145.00	 2238.68	-1469.93	 1154.58
     60.4710	 2112.00	 2244.83	-1509.08	 1153.74
     60.4970	 2185.00	 2251.18	-1442.43	 1152.89
     60.5230	 2174.00	 2257.71	-1459.96	 1152.05
     60.5490	 2154.00	 2264.44	-1486.69	 1151.21
     60.5750	 2152.00	 2271.37	-1495.62	 1150.37
     60.6010	 2141.00	 2278.49	-1513.74	 1149.53
     60.6270	 2153.00	 2285.81	-1509.06	 1148.69
     60.6530	 2130.00	 2293.33	-1539.58	 1147.86
     60.6790	 2134.00	 2301.04	-1543.29	 1147.03
     60.7050	 2151.00	 2308.95	-1534.20	 1146.20
     60.7310	 2126.00	 2317.06	-1567.31	 1145.37
     60.7570	 2181.00	 2325.36	-1520.61	 1144.54
     60.7830	 2192.00	 2333.87	-1518.12	 1143.72
     60.8090	 2171.00	 2342.57	-1547.82	 1142.90
     60.8350	 2164.00	 2351.46	-1563.71	 1142.08
     60.8610	 2164.00	 2360.55	-1572.80	 1141.27
     60.8870	 2148.00	 2369.83	-1598.08	 1140.45
     60.9130	 2152.00	 2379.30	-1603.55	 1139.64
     60.9390	 2188.00	 2388.96	-1577.21	 1138.83
     60.9650	 2153.00	 2398.81	-1622.06	 1138.02
     60.9910	 2151.00	 2408.84	-1634.09	 1137.22
     61.0170	 2114.00	 2419.05	-1681.30	 1136.42
     61.0430	 2095.00	 2429.43	-1710.68	 1135.62
     61.0690	 2143.00	 2439.98	-1673.23	 1134.82
     61.0950	 2168.00	 2450.70	-1658.95	 1134.02
     61.1210	 2169.00	 2461.57	-1668.82	 1133.23
     61.1470	 2201.00	 2472.60	-1647.85	 1132.44
     61.1730	 2193.00	 2483.77	-1667.02	 1131.65
     61.1990	 2150.00	 2495.09	-1721.34	 1130.87
     61.2250	 2165.00	 2506.53	-1717.78	 1130.08
     61.2510	 2128.00	 2518.09	-1766.34	 1129.30
     61.2770	 2146.00	 2529.77	-1760.02	 1128.53
     61.3030	 2197.00	 2541.54	-1720.79	 1127.75
     61.3290	 2205.00	 2553.41	-1724.66	 1126.98
     61.3550	 2170.00	 2565.35	-1771.60	 1126.21
     61.3810	 2164.00	 2577.35	-1789.60	 1125.44
     61.4070	 2234.00	 2589.41	-1731.66	 1124.68
     61.4330	 2295.00	 2601.50	-1682.75	 1123.91
     61.4590	 2315.00	 2613.61	-1674.86	 1123.16
     61.4850	 2258.00	 2625.73	-1743.98	 1122.40
     61.5110	 2305.00	 2637.83	-1709.08	 1121.65
     61.5370	 2394.00	 2649.91	-1632.16	 1120.90
     61.5630	 2386.00	 2661.93	-1652.18	 1120.15
     61.5890	 2406.00	 2673.88	-1644.13	 1119.40
     61.6150	 2460.00	 2685.74	-1601.99	 1118.66
     61.6410	 2490.00	 2697.50	-1583.75	 1117.92
     61.6670	 2505.00	 2709.12	-1580.37	 1117.18
     61.6930	 2578.00	 2720.58	-1518.83	 1116.45
     61.7190	 2629.00	 2731.87	-1479.12	 1115.72
     61.7450	 2617.00	 2742.96	-1502.21	 1114.99
     61.7710	 2631.00	 2753.82	-1499.07	 1114.27
     61.7970	 2715.00	 2764.43	-1425.68	 1113.54
     61.8230	 2773.00	 2774.77	-1378.02	 1112.82
     61.8490	 2835.00	 2784.81	-1326.06	 1112.11
     61.8750	 2878.00	 2794.52	-1292.77	 1111.39
     61.9010	 2954.00	 2803.89	-1226.14	 1110.68
     61.9270	 2967.00	 2812.89	-1222.14	 1109.98
     61.9530	 2922.00	 2821.49	-1275.74	 1109.27
     61.9790	 3024.00	 2829.68	-1181.93	 1108.57
     62.0050	 3067.00	 2837.42	-1146.67	 1107.87
     62.0310	 3188.00	 2844.69	-1032.94	 1107.18
     62.0570	 3209.00	 2851.48	-1018.73	 1106.49
     62.0830	 3202.00	 2857.77	-1032.02	 1105.80
     62.1090	 3275.00	 2863.52	 -964.77	 1105.11
     62.1350	 3311.00	 2868.74	 -933.99	 1104.43
     62.1610	 3414.00	 2873.39	 -835.64	 1103.75
     62.1870	 3408.00	 2877.47	 -845.72	 1103.07
     62.2130	 3491.00	 2880.95	 -766.20	 1102.40
     62.2390	 3614.00	 2883.84	 -646.09	 1101.73
     62.2650	 3585.00	 2886.11	 -677.36	 1101.06
     62.2910	 3542.00	 2887.76	 -722.01	 1100.40
     62.3170	 3528.00	 2888.79	 -737.04	 1099.74
     62.3430	 3635.00	 2889.18	 -630.43	 1099.08
     62.3690	 3638.00	 2888.94	 -627.19	 1098.43
     62.3950	 3628.00	 2888.06	 -636.31	 1097.77
     62.4210	 3615.00	 2886.55	 -647.80	 1097.13
     62.4470	 3656.00	 2884.40	 -604.65	 1096.48
     62.4730	 3608.00	 2881.64	 -649.89	 1095.84
     62.4990	 3543.00	 2878.25	 -711.50	 1095.20
     62.5250	 3485.00	 2874.25	 -765.50	 1094.57
     62.5510	 3515.00	 2869.66	 -730.91	 1093.94
     62.5770	 3455.00	 2864.48	 -785.73	 1093.31
     62.6030	 3441.00	 2858.73	 -793.98	 1092.69
     62.6290	 3248.00	 2852.42	 -980.67	 1092.06
     62.6550	 3177.00	 2845.58	-1044.83	 1091.45
     62.6810	 3172.00	 2838.22	-1042.47	 1090.83
     62.7070	 3129.00	 2830.35	-1077.60	 1090.22
     62.7330	 2992.00	 2822.01	-1206.26	 1089.61
     62.7590	 3003.00	 2813.21	-1186.46	 1089.01
     62.7850	 2998.00	 2803.98	-1182.23	 1088.41
     62.8110	 2856.00	 2794.34	-1314.59	 1087.81
     62.8370	 2803.00	 2784.30	-1357.55	 1087.21
     62.8630	 2722.00	 2773.91	-1428.16	 1086.62
     62.8890	 2695.00	 2763.18	-1444.43	 1086.04
     62.9150	 2654.00	 2752.13	-1474.38	 1085.45
     62.9410	 2638.00	 2740.79	-1479.04	 1084.87
     62.9670	 2578.00	 2729.19	-1527.44	 1084.29
     62.9930	 2412.00	 2717.35	-1681.60	 1083.72
     63.0190	 2438.00	 2705.30	-1643.55	 1083.15
     63.0450	 2445.00	 2693.05	-1624.30	 1082.58
     63.0710	 2387.00	 2680.63	-1669.88	 1082.02
     63.0970	 2408.00	 2668.07	-1636.32	 1081.46
     63.1230	 2397.00	 2655.39	-1634.64	 1080.90
     63.1490	 2335.00	 2642.61	-1683.86	 1080.35
     63.1750	 2295.00	 2629.74	-1710.99	 1079.80
     63.2010	 2232.00	 2616.82	-1761.07	 1079.25
     63.2270	 2309.00	 2603.86	-1671.11	 1078.71
     63.2530	 2271.00	 2590.87	-1696.12	 1078.17
     63.2790	 2277.00	 2577.88	-1677.13	 1077.63
     63.3050	 2298.00	 2564.91	-1643.16	 1077.10
     63.3310	 2301.00	 2551.97	-1627.22	 1076.57
     63.3570	 2315.00	 2539.07	-1600.32	 1076.04
     63.3830	 2273.00	 2526.23	-1629.48	 1075.52
     63.4090	 2264.00	 2513.47	-1625.72	 1075.00
     63.4350	 2231.00	 2500.80	-1646.05	 1074.48
     63.4610	 2275.00	 2488.22	-1589.47	 1073.97
     63.4870	 2276.00	 2475.76	-1576.01	 1073.46
     63.5130	 2237.00	 2463.42	-1602.67	 1072.96
     63.5390	 2269.00	 2451.21	-1558.46	 1072.46
     63.5650	 2259.00	 2439.14	-1556.39	 1071.96
     63.5910	 2256.00	 2427.22	-1547.47	 1071.46
     63.6170	 2291.00	 2415.45	-1500.70	 1070.97
     63.6430	 2293.00	 2403.85	-1487.10	 1070.48
     63.6690	 2222.00	 2392.42	-1546.67	 1070.00
     63.6950	 2215.00	 2381.17	-1542.42	 1069.52
     63.7210	 2264.00	 2370.10	-1482.35	 1069.04
     63.7470	 2235.00	 2359.22	-1500.47	 1068.57
     63.7730	 2165.00	 2348.52	-1559.77	 1068.10
     63.7990	 2105.00	 2338.03	-1609.28	 1067.63
     63.8250	 2136.00	 2327.73	-1567.98	 1067.17
     63.8510	 2210.00	 2317.63	-1483.88	 1066.71
     63.8770	 2201.00	 2307.73	-1482.98	 1066.25
     63.9030	 2164.00	 2298.05	-1510.30	 1065.80
     63.9290	 2131.00	 2288.57	-1533.82	 1065.35
     63.9550	 2125.00	 2279.29	-1530.54	 1064.90
     63.9810	 2145.00	 2270.23	-1501.48	 1064.46
     64.0070	 2184.00	 2261.38	-1453.63	 1064.02
     64.0330	 2228.00	 2252.75	-1401.00	 1063.58
     64.0590	 2218.00	 2244.32	-1402.57	 1063.15
     64.0850	 2228.00	 2236.11	-1384.36	 1062.72
     64.1110	 2252.00	 2228.11	-1352.36	 1062.29
     64.1370	 2165.00	 2220.33	-1431.58	 1061.87
     64.1630	 2115.00	 2212.75	-1474.00	 1061.45
     64.1890	 2176.00	 2205.39	-1405.64	 1061.03
     64.2150	 2184.00	 2198.24	-1390.49	 1060.62
     64.2410	 2190.00	 2191.30	-1377.55	 1060.21
     64.2670	 2159.00	 2184.58	-1401.83	 1059.81
     64.2930	 2147.00	 2178.05	-1407.30	 1059.40
     64.3190	 2181.00	 2171.74	-1366.99	 1059.00
     64.3450	 2131.00	 2165.64	-1410.89	 1058.61
     64.3710	 2142.00	 2159.74	-1393.99	 1058.21
     64.3970	 2131.00	 2154.04	-1399.29	 1057.83
     64.4230	 2137.00	 2148.55	-1387.80	 1057.44
     64.4490	 2152.00	 2143.26	-1367.51	 1057.06
     64.4750	 2116.00	 2138.18	-1398.43	 1056.68
     64.5010	 2097.00	 2133.29	-1412.54	 1056.30
     64.5270	 2160.00	 2128.59	-1344.84	 1055.93
     64.5530	 2178.00	 2124.10	-1322.35	 1055.56
     64.5790	 2139.00	 2119.80	-1357.05	 1055.19
     64.6050	 2180.00	 2115.69	-1311.94	 1054.83
     64.6310	 2183.00	 2111.78	-1305.03	 1054.47
     64.6570	 2137.00	 2108.05	-1347.30	 1054.11
     64.6830	 2130.00	 2104.52	-1350.77	 1053.76
     64.7090	 2088.00	 2101.17	-1389.42	 1053.41
     64.7350	 2094.00	 2098.00	-1380.25	 1053.06
     64.7610	 2130.00	 2095.02	-1341.27	 1052.72
     64.7870	 2066.00	 2092.23	-1402.48	 1052.38
     64.8130	 2131.00	 2089.61	-1334.86	 1052.04
     64.8390	 2100.00	 2087.17	-1363.42	 1051.70
     64.8650	 2050.00	 2084.91	-1411.16	 1051.37
     64.8910	 2070.00	 2082.82	-1389.07	 1051.04
     64.9170	 2092.00	 2080.91	-1365.16	 1050.72
     64.9430	 2041.00	 2079.17	-1414.42	 1050.40
     64.9690	 2099.00	 2077.60	-1354.85	 1050.08
     64.9950	 2081.00	 2076.19	-1371.44	 1049.76
     65.0210	 2006.00	 2074.96	-1445.21	 1049.45
     65.0470	 2015.00	 2073.88	-1435.13	 1049.14
     65.0730	 2072.00	 2072.97	-1377.22	 1048.83
     65.0990	 2056.00	 2072.22	-1392.47	 1048.53
     65.1250	 2024.00	 2071.62	-1423.87	 1048.23
     65.1510	 2077.00	 2071.18	-1370.43	 1047.93
     65.1770	 2039.00	 2070.89	-1408.14	 1047.63
     65.2030	 2092.00	 2070.75	-1355.00	 1047.34
     65.2290	 1991.00	 2070.75	-1456.00	 1047.05
     65.2550	 2017.00	 2070.90	-1430.15	 1046.76
     65.2810	 2081.00	 2071.19	-1366.44	 1046.48
     65.3070	 2094.00	 2071.62	-1353.87	 1046.20
     65.3330	 2063.00	 2072.18	-1385.43	 1045.92
     65.3590	 2019.00	 2072.87	-1430.12	 1045.65
     65.3850	 1986.00	 2073.69	-1463.94	 1045.37
     65.4110	 2054.00	 2074.63	-1396.88	 1045.10
     65.4370	 2121.00	 2075.70	-1330.95	 1044.84
     65.4630	 2136.00	 2076.87	-1317.12	 1044.57
     65.4890	 2069.00	 2078.16	-1385.41	 1044.31
     65.5150	 2060.00	 2079.55	-1395.80	 1044.05
     65.5410	 2068.00	 2081.05	-1389.30	 1043.80
     65.5670	 2081.00	 2082.63	-1377.88	 1043.55
     65.5930	 2062.00	 2084.31	-1398.56	 1043.30
     65.6190	 2131.00	 2086.08	-1331.33	 1043.05
     65.6450	 2017.00	 2087.92	-1447.17	 1042.80
     65.6710	 2088.00	 2089.83	-1378.08	 1042.56
     65.6970	 1983.00	 2091.81	-1485.06	 1042.32
     65.7230	 1967.00	 2093.85	-1503.10	 1042.08
     65.7490	 2004.00	 2095.94	-1468.19	 1041.85
     65.7750	 2035.00	 2098.08	-1439.33	 1041.62
     65.8010	 2019.00	 2100.26	-1457.51	 1041.39
     65.8270	 2017.00	 2102.46	-1461.71	 1041.16
     65.8530	 2026.00	 2104.69	-1454.94	 1040.93
     65.8790	 2047.00	 2106.93	-1436.18	 1040.71
     65.9050	 2023.00	 2109.17	-1462.42	 1040.49
     65.9310	 1956.00	 2111.42	-1531.67	 1040.28
     65.9570	 2011.00	 2113.65	-1478.90	 1040.06
     65.9830	 2028.00	 2115.86	-1464.11	 1039.85
     66.0090	 2008.00	 2118.04	-1486.29	 1039.64
     66.0350	 1945.00	 2120.19	-1551.44	 1039.43
     66.0610	 2032.00	 2122.28	-1466.53	 1039.22
     66.0870	 2017.00	 2124.32	-1483.57	 1039.02
     66.1130	 2054.00	 2126.30	-1448.55	 1038.82
     66.1390	 2038.00	 2128.20	-1466.45	 1038.62
     66.1650	 2101.00	 2130.01	-1405.26	 1038.42
     66.1910	 2100.00	 2131.73	-1407.98	 1038.23
     66.2170	 2038.00	 2133.35	-1471.60	 1038.04
     66.2430	 2085.00	 2134.86	-1426.11	 1037.85
     66.2690	 2094.00	 2136.26	-1418.51	 1037.66
     66.2950	 2086.00	 2137.52	-1427.77	 1037.47
     66.3210	 2032.00	 2138.65	-1482.90	 1037.29
     66.3470	 2039.00	 2139.64	-1476.89	 1037.11
     66.3730	 2072.00	 2140.49	-1444.74	 1036.93
     66.3990	 2115.00	 2141.17	-1402.42	 1036.75
     66.4250	 2097.00	 2141.70	-1420.95	 1036.58
     66.4510	 2064.00	 2142.06	-1454.31	 1036.40
     66.4770	 2073.00	 2142.25	-1445.50	 1036.23
     66.5030	 2049.00	 2142.26	-1469.51	 1036.06
     66.5290	 2028.00	 2142.10	-1490.35	 1035.89
     66.5550	 2059.00	 2141.75	-1459.00	 1035.73
     66.5810	 2080.00	 2141.22	-1437.47	 1035.56
     66.6070	 2068.00	 2140.51	-1448.76	 1035.40
     66.6330	 2060.00	 2139.60	-1455.85	 1035.24
     66.6590	 2050.00	 2138.51	-1464.76	 1035.08
     66.6850	 2081.00	 2137.24	-1432.49	 1034.93
     66.7110	 2099.00	 2135.78	-1413.03	 1034.77
     66.7370	 2065.00	 2134.13	-1445.38	 1034.62
     66.7630	 2094.00	 2132.30	-1414.55	 1034.47
     66.7890	 2114.00	 2130.29	-1392.54	 1034.32
     66.8150	 2107.00	 2128.11	-1397.36	 1034.17
     66.8410	 2129.00	 2125.76	-1373.01	 1034.02
     66.8670	 2109.00	 2123.25	-1390.50	 1033.88
     66.8930	 2047.00	 2120.57	-1449.82	 1033.73
     66.9190	 2075.00	 2117.74	-1418.99	 1033.59
     66.9450	 2089.00	 2114.76	-1402.01	 1033.45
     66.9710	 2106.00	 2111.63	-1381.88	 1033.31
     66.9970	 2075.00	 2108.38	-1409.63	 1033.17
     67.0230	 2105.00	 2105.00	-1376.25	 1033.04
     67.0490	 2056.00	 2101.49	-1421.74	 1032.90
     67.0750	 2028.00	 2097.88	-1446.13	 1032.77
     67.1010	 2078.00	 2094.16	-1392.41	 1032.64
     67.1270	 2059.00	 2090.35	-1407.60	 1032.51
     67.1530	 2039.00	 2086.45	-1423.70	 1032.38
     67.1790	 2053.00	 2082.48	-1405.73	 1032.25
     67.2050	 2043.00	 2078.43	-1411.68	 1032.12
     67.2310	 2039.00	 2074.32	-1411.57	 1032.00
     67.2570	 2024.00	 2070.16	-1422.41	 1031.87
     67.2830	 2080.00	 2065.96	-1362.21	 1031.75
     67.3090	 2055.00	 2061.72	-1382.97	 1031.63
     67.3350	 2038.00	 2057.46	-1395.71	 1031.51
     67.3610	 2009.00	 2053.17	-1420.42	 1031.39
     67.3870	 2089.00	 2048.87	-1336.12	 1031.27
     67.4130	 2168.00	 2044.57	-1252.82	 1031.15
     67.4390	 2073.00	 2040.28	-1343.53	 1031.04
     67.4650	 2082.00	 2035.99	-1330.24	 1030.92
     67.4910	 2150.00	 2031.72	-1257.97	 1030.81
     67.5170	 2067.00	 2027.48	-1336.73	 1030.69
     67.5430	 2002.00	 2023.27	-1397.52	 1030.58
     67.5690	 2064.00	 2019.09	-1331.34	 1030.47
     67.5950	 2069.00	 2014.96	-1322.21	 1030.36
     67.6210	 2032.00	 2010.88	-1355.13	 1030.25
     67.6470	 2070.00	 2006.85	-1313.10	 1030.14
     67.6730	 2074.00	 2002.89	-1305.14	 1030.03
     67.6990	 2022.00	 1998.99	-1353.24	 1029.92
     67.7250	 1967.00	 1995.16	-1404.41	 1029.82
     67.7510	 2068.00	 1991.40	-1299.65	 1029.71
     67.7770	 2038.00	 1987.72	-1325.97	 1029.61
     67.8030	 2140.00	 1984.12	-1220.38	 1029.50
     67.8290	 2171.00	 1980.61	-1185.86	 1029.40
     67.8550	 2040.00	 1977.19	-1313.44	 1029.29
     67.8810	 2080.00	 1973.86	-1270.11	 1029.19
     67.9070	 2157.00	 1970.63	-1189.88	 1029.09
     67.9330	 2084.00	 1967.50	-1259.75	 1028.99
     67.9590	 2123.00	 1964.47	-1217.72	 1028.89
     67.9850	 2014.00	 1961.54	-1323.79	 1028.79
     68.0110	 2036.00	 1958.71	-1298.96	 1028.69
     68.0370	 2065.00	 1956.00	-1267.25	 1028.59
     68.0630	 1999.00	 1953.39	-1330.64	 1028.49
     68.0890	 2019.00	 1950.90	-1308.15	 1028.39
     68.1150	 2060.00	 1948.52	-1264.77	 1028.29
     68.1410	 2082.00	 1946.25	-1240.50	 1028.20
     68.1670	 2091.00	 1944.10	-1229.35	 1028.10
     68.1930	 2156.00	 1942.07	-1162.32	 1028.00
     68.2190	 2100.00	 1940.15	-1216.40	 1027.91
     68.2450	 2073.00	 1938.36	-1241.61	 1027.81
     68.2710	 2083.00	 1936.68	-1229.93	 1027.71
     68.2970	 2075.00	 1935.13	-1236.38	 1027.62
     68.3230	 2053.00	 1933.70	-1256.95	 1027.52
     68.3490	 2047.00	 1932.39	-1261.64	 1027.43
     68.3750	 2137.00	 1931.21	-1170.46	 1027.33
     68.4010	 2112.00	 1930.15	-1194.40	 1027.24
     68.4270	 2051.00	 1929.21	-1254.46	 1027.14
     68.4530	 2101.00	 1928.40	-1203.65	 1027.05
     68.4790	 2071.00	 1927.72	-1232.97	 1026.95
     68.5050	 2040.00	 1927.16	-1263.41	 1026.86
     68.5310	 2035.00	 1926.73	-1267.98	 1026.76
     68.5570	 2075.00	 1926.42	-1227.67	 1026.67
     68.5830	 2082.00	 1926.24	-1220.49	 1026.57
     68.6090	 2080.00	 1926.19	-1222.44	 1026.48
     68.6350	 2089.00	 1926.27	-1213.52	 1026.38
     68.6610	 2071.00	 1926.47	-1231.72	 1026.29
     68.6870	 2028.00	 1926.80	-1275.05	 1026.19
     68.7130	 2052.00	 1927.25	-1251.50	 1026.10
     68.7390	 2064.00	 1927.84	-1240.09	 1026.00
     68.7650	 2064.00	 1928.55	-1240.80	 1025.91
     68.7910	 2107.00	 1929.38	-1198.63	 1025.81
     68.8170	 2001.00	 1930.35	-1305.60	 1025.71
     68.8430	 2045.00	 1931.44	-1262.69	 1025.62
     68.8690	 2085.00	 1932.66	-1223.91	 1025.52
     68.8950	 2012.00	 1934.00	-1298.25	 1025.43
     68.9210	 2028.00	 1935.47	-1283.72	 1025.33
     68.9470	 2104.00	 1937.06	-1209.31	 1025.23
     68.9730	 2111.00	 1938.78	-1204.03	 1025.13
     68.9990	 2075.00	 1940.62	-1241.87	 1025.04
     69.0250	 2031.00	 1942.59	-1287.84	 1024.94
     69.0510	 2028.00	 1944.68	-1292.93	 1024.84
     69.0770	 2093.00	 1946.89	-1230.14	 1024.74
     69.1030	 2111.00	 1949.23	-1214.48	 1024.64
     69.1290	 2096.00	 1951.68	-1231.93	 1024.54
     69.1550	 2122.00	 1954.25	-1208.50	 1024.44
     69.1810	 2113.00	 1956.94	-1220.19	 1024.34
     69.2070	 2083.00	 1959.75	-1253.00	 1024.24
     69.2330	 2121.00	 1962.68	-1217.93	 1024.14
     69.2590	 2079.00	 1965.71	-1262.96	 1024.04
     69.2850	 2010.00	 1968.86	-1335.11	 1023.93
     69.3110	 2033.00	 1972.12	-1315.37	 1023.83
     69.3370	 2040.00	 1975.49	-1311.74	 1023.73
     69.3630	 2027.00	 1978.96	-1328.21	 1023.62
     69.3890	 2046.00	 1982.54	-1312.79	 1023.52
     69.4150	 2104.00	 1986.22	-1258.47	 1023.41
     69.4410	 2079.00	 1989.99	-1287.24	 1023.31
     69.4670	 2067.00	 1993.86	-1303.11	 1023.20
     69.4930	 2077.00	 1997.83	-1297.08	 1023.09
     69.5190	 2093.00	 2001.88	-1285.13	 1022.98
     69.5450	 2114.00	 2006.01	-1268.26	 1022.87
     69.5710	 2077.00	 2010.23	-1309.48	 1022.76
     69.5970	 2067.00	 2014.52	-1323.77	 1022.65
     69.6230	 2148.00	 2018.89	-1247.14	 1022.54
     69.6490	 2026.00	 2023.32	-1373.57	 1022.43
     69.6750	 2018.00	 2027.82	-1386.07	 1022.32
     69.7010	 2081.00	 2032.37	-1327.62	 1022.21
     69.7270	 2053.00	 2036.97	-1360.22	 1022.09
     69.7530	 2019.00	 2041.61	-1398.86	 1021.98
     69.7790	 2015.00	 2046.30	-1407.55	 1021.86
     69.8050	 2046.00	 2051.02	-1381.27	 1021.75
     69.8310	 2127.00	 2055.76	-1305.01	 1021.63
     69.8570	 2083.00	 2060.52	-1353.77	 1021.51
     69.8830	 2047.00	 2065.29	-1394.54	 1021.39
     69.9090	 2067.00	 2070.06	-1379.31	 1021.27
     69.9350	 2065.00	 2074.83	-1386.08	 1021.15
     69.9610	 2039.00	 2079.59	-1416.84	 1021.03
     69.9870	 2065.00	 2084.32	-1395.57	 1020.91
     70.0130	 2062.00	 2089.02	-1403.27	 1020.79
     70.0390	 2059.00	 2093.68	-1410.93	 1020.66
     70.0650	 2058.00	 2098.30	-1416.55	 1020.54
     70.0910	 2041.00	 2102.85	-1438.10	 1020.41
     70.1170	 2023.00	 2107.34	-1460.59	 1020.28
     70.1430	 2075.00	 2111.74	-1412.99	 1020.16
     70.1690	 2133.00	 2116.07	-1359.32	 1020.03
     70.1950	 2080.00	 2120.29	-1416.54	 1019.90
     70.2210	 2096.00	 2124.41	-1404.66	 1019.77
     70.2470	 2086.00	 2128.41	-1418.66	 1019.64
     70.2730	 2082.00	 2132.29	-1426.54	 1019.51
     70.2990	 2126.00	 2136.03	-1386.28	 1019.37
     70.3250	 2139.00	 2139.62	-1376.87	 1019.24
     70.3510	 2148.00	 2143.06	-1371.31	 1019.10
     70.3770	 2012.00	 2146.34	-1510.59	 1018.97
     70.4030	 2021.00	 2149.44	-1504.69	 1018.83
     70.4290	 2140.00	 2152.37	-1388.62	 1018.69
     70.4550	 2044.00	 2155.11	-1487.36	 1018.55
     70.4810	 2044.00	 2157.65	-1489.90	 1018.41
     70.5070	 2133.00	 2159.99	-1403.24	 1018.27
     70.5330	 2112.00	 2162.12	-1426.37	 1018.13
     70.5590	 2089.00	 2164.04	-1451.29	 1017.99
     70.5850	 2020.00	 2165.73	-1521.98	 1017.84
     70.6110	 2037.00	 2167.21	-1506.46	 1017.70
     70.6370	 2025.00	 2168.45	-1519.70	 1017.55
     70.6630	 1992.00	 2169.46	-1553.71	 1017.41
     70.6890	 2030.00	 2170.24	-1516.49	 1017.26
     70.7150	 2082.00	 2170.78	-1465.03	 1017.11
     70.7410	 2111.00	 2171.08	-1436.33	 1016.96
     70.7670	 2032.00	 2171.15	-1515.40	 1016.81
     70.7930	 2057.00	 2170.98	-1490.23	 1016.66
     70.8190	 2064.00	 2170.57	-1482.82	 1016.51
     70.8450	 2088.00	 2169.93	-1458.18	 1016.35
     70.8710	 2049.00	 2169.06	-1496.31	 1016.20
     70.8970	 1986.00	 2167.96	-1558.21	 1016.04
     70.9230	 2085.00	 2166.63	-1457.88	 1015.89
     70.9490	 2043.00	 2165.09	-1498.34	 1015.73
     70.9750	 2120.00	 2163.33	-1419.58	 1015.57
     71.0010	 2091.00	 2161.36	-1446.61	 1015.41
     71.0270	 2082.00	 2159.20	-1453.45	 1015.25
     71.0530	 2044.00	 2156.83	-1489.08	 1015.09
     71.0790	 2102.00	 2154.28	-1428.53	 1014.93
     71.1050	 2066.00	 2151.55	-1461.80	 1014.76
     71.1310	 2068.00	 2148.65	-1456.90	 1014.60
     71.1570	 2053.00	 2145.59	-1468.84	 1014.44
     71.1830	 2035.00	 2142.37	-1483.62	 1014.27
     71.2090	 2117.00	 2139.01	-1398.26	 1014.10
     71.2350	 2075.00	 2135.52	-1436.77	 1013.94
     71.2610	 2030.00	 2131.90	-1478.15	 1013.77
     71.2870	 2047.00	 2128.17	-1457.42	 1013.60
     71.3130	 2037.00	 2124.33	-1463.58	 1013.43
     71.3390	 2038.00	 2120.40	-1458.65	 1013.26
     71.3650	 2058.00	 2116.39	-1434.64	 1013.09
     71.3910	 1952.00	 2112.30	-1536.55	 1012.91
     71.4170	 1963.00	 2108.14	-1521.39	 1012.74
     71.4430	 2039.00	 2103.93	-1441.18	 1012.57
     71.4690	 2042.00	 2099.67	-1433.92	 1012.39
     71.4950	 2000.00	 2095.38	-1471.63	 1012.21
     71.5210	 2078.00	 2091.06	-1389.31	 1012.04
     71.5470	 2048.00	 2086.72	-1414.97	 1011.86
     71.5730	 1966.00	 2082.38	-1492.63	 1011.68
     71.5990	 2004.00	 2078.03	-1450.28	 1011.50
     71.6250	 2054.00	 2073.69	-1395.94	 1011.32
     71.6510	 2065.00	 2069.37	-1380.62	 1011.14
     71.6770	 2085.00	 2065.07	-1356.32	 1010.96
     71.7030	 2101.00	 2060.81	-1336.06	 1010.78
     71.7290	 2082.00	 2056.58	-1350.83	 1010.60
     71.7550	 2076.00	 2052.40	-1352.65	 1010.42
     71.7810	 2016.00	 2048.27	-1408.52	 1010.23
     71.8070	 1975.00	 2044.20	-1445.45	 1010.05
     71.8330	 1974.00	 2040.20	-1442.45	 1009.87
     71.8590	 1977.00	 2036.26	-1435.51	 1009.68
     71.8850	 1982.00	 2032.40	-1426.65	 1009.49
     71.9110	 1975.00	 2028.62	-1429.87	 1009.31
     71.9370	 2030.00	 2024.93	-1371.18	 1009.12
     71.9630	 2007.00	 2021.33	-1390.58	 1008.93
     71.9890	 1953.00	 2017.82	-1441.07	 1008.75
     72.0150	 1987.00	 2014.42	-1403.67	 1008.56
     72.0410	 2014.00	 2011.11	-1373.36	 1008.37
     72.0670	 2033.00	 2007.91	-1351.16	 1008.18
     72.0930	 2002.00	 2004.82	-1379.07	 1007.99
     72.1190	 2019.00	 2001.84	-1359.09	 1007.80
     72.1450	 2005.00	 1998.98	-1370.23	 1007.61
     72.1710	 1987.00	 1996.24	-1385.49	 1007.42
     72.1970	 2077.00	 1993.62	-1292.87	 1007.23
     72.2230	 2051.00	 1991.12	-1316.37	 1007.04
     72.2490	 1988.00	 1988.75	-1377.00	 1006.85
     72.2750	 1982.00	 1986.50	-1380.75	 1006.66
     72.3010	 1969.00	 1984.38	-1391.63	 1006.46
     72.3270	 1964.00	 1982.40	-1394.65	 1006.27
     72.3530	 1961.00	 1980.54	-1395.79	 1006.08
     72.3790	 2006.00	 1978.82	-1349.07	 1005.89
     72.4050	 1974.00	 1977.24	-1379.49	 1005.69
     72.4310	 2001.00	 1975.79	-1351.04	 1005.50
     72.4570	 1983.00	 1974.48	-1367.73	 1005.31
     72.4830	 2025.00	 1973.30	-1324.55	 1005.12
     72.5090	 2019.00	 1972.27	-1329.52	 1004.92
     72.5350	 2071.00	 1971.37	-1276.62	 1004.73
     72.5610	 1977.00	 1970.62	-1369.87	 1004.54
     72.5870	 2028.00	 1970.00	-1318.25	 1004.35
     72.6130	 1973.00	 1969.53	-1372.78	 1004.15
     72.6390	 1918.00	 1969.20	-1427.45	 1003.96
     72.6650	 1965.00	 1969.01	-1380.26	 1003.77
     72.6910	 1989.00	 1968.96	-1356.21	 1003.57
     72.7170	 1962.00	 1969.06	-1383.31	 1003.38
     72.7430	 2034.00	 1969.30	-1311.55	 1003.19
     72.7690	 1965.00	 1969.68	-1380.93	 1003.00
     72.7950	 1961.00	 1970.20	-1385.45	 1002.81
     72.8210	 2001.00	 1970.86	-1346.11	 1002.62
     72.8470	 2022.00	 1971.67	-1325.92	 1002.42
     72.8730	 1987.00	 1972.61	-1361.86	 1002.23
     72.8990	 1956.00	 1973.70	-1393.95	 1002.04
     72.9250	 2028.00	 1974.93	-1323.18	 1001.85
     72.9510	 1985.00	 1976.30	-1367.55	 1001.66
     72.9770	 1988.00	 1977.80	-1366.05	 1001.48
     73.0030	 2013.00	 1979.45	-1342.70	 1001.29
     73.0290	 1994.00	 1981.23	-1363.48	 1001.10
     73.0550	 1929.00	 1983.15	-1430.40	 1000.91
     73.0810	 2000.00	 1985.20	-1361.45	 1000.72
     73.1070	 2050.00	 1987.39	-1313.64	 1000.54
     73.1330	 2069.00	 1989.71	-1296.96	 1000.35
     73.1590	 1995.00	 1992.16	-1373.41	 1000.17
     73.1850	 1946.00	 1994.75	-1425.00	  999.98
     73.2110	 2059.00	 1997.46	-1314.71	  999.80
     73.2370	 2075.00	 2000.29	-1301.54	  999.61
     73.2630	 2007.00	 2003.25	-1372.50	  999.43
     73.2890	 2018.00	 2006.34	-1364.59	  999.25
     73.3150	 1974.00	 2009.54	-1411.79	  999.07
     73.3410	 2042.00	 2012.86	-1347.11	  998.89
     73.3670	 2013.00	 2016.30	-1379.55	  998.71
     73.3930	 2013.00	 2019.84	-1383.09	  998.53
     73.4190	 1990.00	 2023.50	-1409.75	  998.36
     73.4450	 2029.00	 2027.26	-1374.51	  998.18
     73.4710	 2013.00	 2031.12	-1394.37	  998.00
     73.4970	 2039.00	 2035.09	-1372.34	  997.83
     73.5230	 2051.00	 2039.14	-1364.39	  997.66
     73.5490	 2018.00	 2043.29	-1401.54	  997.48
     73.5750	 1951.00	 2047.52	-1472.77	  997.31
     73.6010	 2033.00	 2051.83	-1395.08	  997.14
     73.6270	 1987.00	 2056.22	-1445.47	  996.97
     73.6530	 2059.00	 2060.68	-1377.93	  996.81
     73.6790	 2010.00	 2065.20	-1431.45	  996.64
     73.7050	 2079.00	 2069.79	-1367.04	  996.47
     73.7310	 2003.00	 2074.42	-1447.67	  996.31
     73.7570	 2013.00	 2079.11	-1442.36	  996.15
     73.7830	 2041.00	 2083.83	-1419.08	  995.99
     73.8090	 2010.00	 2088.59	-1454.84	  995.83
     73.8350	 2073.00	 2093.37	-1396.62	  995.67
     73.8610	 2081.00	 2098.18	-1393.43	  995.51
     73.8870	 2103.00	 2102.99	-1376.24	  995.35
     73.9130	 2043.00	 2107.81	-1441.06	  995.20
     73.9390	 2030.00	 2112.62	-1458.87	  995.05
     73.9650	 2085.00	 2117.41	-1408.66	  994.89
     73.9910	 2154.00	 2122.19	-1344.44	  994.74
     74.0170	 2090.00	 2126.93	-1413.18	  994.59
     74.0430	 2107.00	 2131.63	-1400.88	  994.45
     74.0690	 2091.00	 2136.28	-1421.53	  994.30
     74.0950	 2072.00	 2140.87	-1445.12	  994.16
     74.1210	 2046.00	 2145.39	-1475.64	  994.02
     74.1470	 2103.00	 2149.83	-1423.08	  993.88
     74.1730	 2187.00	 2154.18	-1343.43	  993.74
     74.1990	 2176.00	 2158.43	-1358.68	  993.60
     74.2250	 2120.00	 2162.57	-1418.82	  993.46
     74.2510	 2129.00	 2166.60	-1413.85	  993.33
     74.2770	 2161.00	 2170.49	-1385.74	  993.20
     74.3030	 2223.00	 2174.25	-1327.50	  993.07
     74.3290	 2178.00	 2177.85	-1376.10	  992.94
     74.3550	 2114.00	 2181.30	-1443.55	  992.81
     74.3810	 2125.00	 2184.59	-1435.84	  992.69
     74.4070	 2182.00	 2187.69	-1381.94	  992.56
     74.4330	 2216.00	 2190.62	-1350.87	  992.44
     74.4590	 2239.00	 2193.35	-1330.60	  992.32
     74.4850	 2271.00	 2195.88	-1301.13	  992.21
     74.5110	 2229.00	 2198.21	-1345.46	  992.09
     74.5370	 2170.00	 2200.32	-1406.57	  991.98
     74.5630	 2154.00	 2202.21	-1424.46	  991.86
     74.5890	 2179.00	 2203.88	-1401.13	  991.75
     74.6150	 2181.00	 2205.32	-1400.57	  991.65
     74.6410	 2172.00	 2206.52	-1410.77	  991.54
     74.6670	 2202.00	 2207.49	-1381.74	  991.44
     74.6930	 2215.00	 2208.21	-1369.46	  991.33
     74.7190	 2223.00	 2208.69	-1361.94	  991.23
     74.7450	 2265.00	 2208.92	-1320.17	  991.13
     74.7710	 2261.00	 2208.91	-1324.16	  991.04
     74.7970	 2262.00	 2208.66	-1322.91	  990.94
     74.8230	 2207.00	 2208.16	-1377.41	  990.85
     74.8490	 2127.00	 2207.41	-1456.66	  990.76
     74.8750	 2140.00	 2206.42	-1442.67	  990.67
     74.9010	 2185.00	 2205.20	-1396.45	  990.58
     74.9270	 2196.00	 2203.74	-1383.99	  990.50
     74.9530	 2208.00	 2202.05	-1370.30	  990.42
     74.9790	 2178.00	 2200.13	-1398.38	  990.34
     75.0050	 2234.00	 2198.00	-1340.25	  990.26
     75.0310	 2216.00	 2195.65	-1355.90	  990.18
     75.0570	 2184.00	 2193.09	-1385.34	  990.11
     75.0830	 2193.00	 2190.34	-1373.59	  990.03
     75.1090	 2140.00	 2187.39	-1423.64	  989.96
     75.1350	 2173.00	 2184.26	-1387.51	  989.89
     75.1610	 2140.00	 2180.95	-1417.20	  989.83
     75.1870	 2112.00	 2177.48	-1441.73	  989.76
     75.2130	 2145.00	 2173.84	-1405.09	  989.70
     75.2390	 2200.00	 2170.07	-1346.32	  989.63
     75.2650	 2140.00	 2166.15	-1402.40	  989.57
     75.2910	 2140.00	 2162.11	-1398.36	  989.52
     75.3170	 2088.00	 2157.94	-1446.19	  989.46
     75.3430	 2101.00	 2153.67	-1428.92	  989.41
     75.3690	 2090.00	 2149.31	-1435.56	  989.35
     75.3950	 2087.00	 2144.85	-1434.10	  989.30
     75.4210	 2092.00	 2140.32	-1424.57	  989.25
     75.4470	 2131.00	 2135.72	-1380.97	  989.20
     75.4730	 2056.00	 2131.06	-1451.31	  989.16
     75.4990	 2125.00	 2126.36	-1377.61	  989.11
     75.5250	 2082.00	 2121.62	-1415.87	  989.07
     75.5510	 2043.00	 2116.85	-1450.10	  989.03
     75.5770	 2101.00	 2112.06	-1387.31	  988.99
     75.6030	 2005.00	 2107.27	-1478.52	  988.95
     75.6290	 2065.00	 2102.47	-1413.72	  988.91
     75.6550	 2053.00	 2097.68	-1420.93	  988.87
     75.6810	 2017.00	 2092.91	-1452.16	  988.84
     75.7070	 2059.00	 2088.16	-1405.41	  988.81
     75.7330	 2066.00	 2083.44	-1393.69	  988.77
     75.7590	 2138.00	 2078.77	-1317.02	  988.74
     75.7850	 2072.00	 2074.14	-1378.39	  988.71
     75.8110	 2000.00	 2069.56	-1445.81	  988.68
     75.8370	 2126.00	 2065.05	-1315.30	  988.65
     75.8630	 2116.00	 2060.60	-1320.85	  988.63
     75.8890	 2159.00	 2056.23	-1273.48	  988.60
     75.9150	 2044.00	 2051.93	-1384.18	  988.57
     75.9410	 2044.00	 2047.72	-1379.97	  988.55
     75.9670	 2043.00	 2043.60	-1376.85	  988.52
     75.9930	 2052.00	 2039.57	-1363.82	  988.50
     76.0190	 2010.00	 2035.64	-1401.89	  988.47
     76.0450	 2040.00	 2031.82	-1368.07	  988.45
     76.0710	 1986.00	 2028.10	-1418.35	  988.43
     76.0970	 2048.00	 2024.49	-1352.74	  988.40
     76.1230	 2029.00	 2021.00	-1368.25	  988.38
     76.1490	 2113.00	 2017.62	-1280.87	  988.36
     76.1750	 2070.00	 2014.37	-1320.62	  988.33
     76.2010	 2031.00	 2011.23	-1356.48	  988.31
     76.2270	 2045.00	 2008.23	-1339.48	  988.29
     76.2530	 1968.00	 2005.35	-1413.60	  988.26
     76.2790	 2065.00	 2002.61	-1313.86	  988.24
     76.3050	 2002.00	 1999.99	-1374.24	  988.21
     76.3310	 2096.00	 1997.51	-1277.76	  988.19
     76.3570	 2089.00	 1995.17	-1282.42	  988.16
     76.3830	 2143.00	 1992.97	-1226.22	  988.13
     76.4090	 2091.00	 1990.90	-1276.15	  988.10
     76.4350	 2044.00	 1988.98	-1321.23	  988.07
     76.4610	 2054.00	 1987.19	-1309.44	  988.04
     76.4870	 2087.00	 1985.55	-1274.80	  988.01
     76.5130	 2042.00	 1984.06	-1318.31	  987.97
     76.5390	 2076.00	 1982.70	-1282.95	  987.94
     76.5650	 2025.00	 1981.49	-1332.74	  987.90
     76.5910	 2034.00	 1980.43	-1322.68	  987.86
     76.6170	 1997.00	 1979.51	-1358.76	  987.82
     76.6430	 2020.00	 1978.74	-1334.99	  987.77
     76.6690	 2083.00	 1978.11	-1271.36	  987.72
     76.6950	 2072.00	 1977.63	-1281.88	  987.67
     76.7210	 2045.00	 1977.29	-1308.54	  987.62
     76.7470	 2118.00	 1977.10	-1235.35	  987.56
     76.7730	 2072.00	 1977.06	-1281.31	  987.50
     76.7990	 2060.00	 1977.16	-1293.41	  987.44
     76.8250	 2060.00	 1977.40	-1293.65	  987.38
     76.8510	 2050.00	 1977.78	-1304.03	  987.31
     76.8770	 2062.00	 1978.31	-1292.56	  987.23
     76.9030	 2058.00	 1978.98	-1297.23	  987.15
     76.9290	 2061.00	 1979.79	-1295.04	  987.07
     76.9550	 2057.00	 1980.74	-1299.99	  986.98
     76.9810	 2083.00	 1981.83	-1275.08	  986.89
     77.0070	 2089.00	 1983.05	-1270.30	  986.80
     77.0330	 2020.00	 1984.41	-1340.66	  986.69
     77.0590	 2032.00	 1985.91	-1330.16	  986.59
     77.0850	 2075.00	 1987.53	-1288.78	  986.47
     77.1110	 2057.00	 1989.29	-1308.54	  986.36
     77.1370	 2076.00	 1991.17	-1291.42	  986.23
     77.1630	 2076.00	 1993.18	-1293.43	  986.10
     77.1890	 2050.00	 1995.32	-1321.57	  985.96
     77.2150	 2093.00	 1997.57	-1280.82	  985.82
     77.2410	 2102.00	 1999.94	-1274.19	  985.67
     77.2670	 2060.00	 2002.43	-1318.68	  985.51
     77.2930	 2071.00	 2005.02	-1310.27	  985.34
     77.3190	 2057.00	 2007.73	-1326.98	  985.17
     77.3450	 2036.00	 2010.54	-1350.79	  984.98
     77.3710	 2076.00	 2013.45	-1313.70	  984.79
     77.3970	 2074.00	 2016.46	-1318.71	  984.59
     77.4230	 2041.00	 2019.56	-1354.81	  984.38
     77.4490	 2038.00	 2022.74	-1360.99	  984.16
     77.4750	 2068.00	 2026.01	-1334.26	  983.94
     77.5010	 2070.00	 2029.36	-1335.61	  983.70
     77.5270	 2079.00	 2032.78	-1330.03	  983.45
     77.5530	 2059.00	 2036.27	-1353.52	  983.19
     77.5790	 2051.00	 2039.82	-1365.07	  982.92
     77.6050	 2046.00	 2043.42	-1373.67	  982.64
     77.6310	 2102.00	 2047.07	-1321.32	  982.34
     77.6570	 2042.00	 2050.76	-1385.01	  982.04
     77.6830	 2068.00	 2054.48	-1362.73	  981.72
     77.7090	 2049.00	 2058.23	-1385.48	  981.39
     77.7350	 2096.00	 2062.00	-1342.25	  981.05
     77.7610	 2065.00	 2065.78	-1377.03	  980.69
     77.7870	 2028.00	 2069.56	-1417.81	  980.32
     77.8130	 2006.00	 2073.33	-1443.58	  979.94
     77.8390	 2051.00	 2077.09	-1402.34	  979.54
     77.8650	 2053.00	 2080.83	-1404.08	  979.12
     77.8910	 1997.00	 2084.52	-1463.77	  978.69
     77.9170	 2022.00	 2088.18	-1442.43	  978.25
     77.9430	 2039.00	 2091.78	-1429.03	  977.78
     77.9690	 2097.00	 2095.32	-1374.57	  977.31
     77.9950	 2033.00	 2098.78	-1442.03	  976.81
     78.0210	 2124.00	 2102.16	-1354.41	  976.30
     78.0470	 2005.00	 2105.44	-1476.69	  975.76
     78.0730	 2041.00	 2108.61	-1443.86	  975.21
     78.0990	 2032.00	 2111.67	-1455.92	  974.65
     78.1250	 2038.00	 2114.59	-1452.84	  974.06
     78.1510	 2064.00	 2117.38	-1429.63	  973.45
     78.1770	 2036.00	 2120.02	-1460.27	  972.82
     78.2030	 2015.00	 2122.49	-1483.74	  972.17
     78.2290	 2078.00	 2124.79	-1423.04	  971.50
     78.2550	 2011.00	 2126.91	-1492.16	  970.80
     78.2810	 2065.00	 2128.84	-1440.09	  970.09
     78.3070	 1982.00	 2130.56	-1524.81	  969.35
     78.3330	 2115.00	 2132.07	-1393.32	  968.58
     78.3590	 2056.00	 2133.35	-1453.60	  967.80
     78.3850	 2075.00	 2134.40	-1435.65	  966.99
     78.4110	 2076.00	 2135.21	-1435.46	  966.15
     78.4370	 2160.00	 2135.77	-1352.02	  965.29
     78.4630	 2032.00	 2136.07	-1480.32	  964.40
     78.4890	 2056.00	 2136.10	-1456.35	  963.48
     78.5150	 2042.00	 2135.86	-1470.11	  962.54
     78.5410	 2049.00	 2135.34	-1462.59	  961.56
     78.5670	 2080.00	 2134.53	-1430.78	  960.56
     78.5930	 2017.00	 2133.43	-1492.68	  959.53
     78.6190	 2060.00	 2132.03	-1448.28	  958.47
     78.6450	 2073.00	 2130.34	-1433.59	  957.38
     78.6710	 1948.00	 2128.34	-1556.59	  956.25
     78.6970	 2051.00	 2126.03	-1451.28	  955.10
     78.7230	 2061.00	 2123.42	-1438.67	  953.91
     78.7490	 2048.00	 2120.50	-1448.75	  952.69
     78.7750	 2032.00	 2117.27	-1461.52	  951.43
     78.8010	 2050.00	 2113.73	-1439.98	  950.14
     78.8270	 1972.00	 2109.89	-1514.14	  948.81
     78.8530	 2049.00	 2105.73	-1432.98	  947.45
     78.8790	 2058.00	 2101.28	-1419.53	  946.05
     78.9050	 2090.00	 2096.52	-1382.77	  944.61
     78.9310	 2049.00	 2091.47	-1418.72	  943.13
     78.9570	 1999.00	 2086.12	-1463.37	  941.61
     78.9830	 2009.00	 2080.49	-1447.74	  940.05
     79.0090	 2063.00	 2074.57	-1387.82	  938.45
     79.0350	 2025.00	 2068.38	-1419.62	  936.81
     79.0610	 1996.00	 2061.91	-1442.16	  935.13
     79.0870	 1986.00	 2055.19	-1445.44	  933.40
     79.1130	 2075.00	 2048.20	-1349.45	  931.63
     79.1390	 2098.00	 2040.97	-1319.22	  929.81
     79.1650	 2001.00	 2033.49	-1408.74	  927.95
     79.1910	 2028.00	 2025.79	-1374.04	  926.04
     79.2170	 2020.00	 2017.85	-1374.10	  924.08
     79.2430	 1982.00	 2009.71	-1403.96	  922.07
     79.2690	 1988.00	 2001.35	-1389.60	  920.01
     79.2950	 1993.00	 1992.80	-1376.05	  917.90
     79.3210	 2025.00	 1984.05	-1335.30	  915.74
     79.3470	 1948.00	 1975.12	-1403.37	  913.53
     79.3730	 1929.00	 1966.02	-1413.27	  911.26
     79.3990	 1948.00	 1956.75	-1385.00	  908.94
     79.4250	 1908.00	 1947.33	-1415.58	  906.56
     79.4510	 1935.00	 1937.76	-1379.01	  904.13
     79.4770	 1974.00	 1928.05	-1330.30	  901.64
     79.5030	 1929.00	 1918.21	-1365.46	  899.09
     79.5290	 1919.00	 1908.24	-1365.49	  896.48
     79.5550	 1946.00	 1898.16	-1328.41	  893.81
     79.5810	 1901.00	 1887.97	-1363.22	  891.07
     79.6070	 1903.00	 1877.67	-1350.92	  888.28
     79.6330	 1917.00	 1867.28	-1326.53	  885.41
     79.6590	 1914.00	 1856.81	-1319.06	  882.49
     79.6850	 1968.00	 1846.25	-1254.50	  879.49
     79.7110	 1990.00	 1835.62	-1221.87	  876.43
     79.7370	 1938.00	 1824.91	-1263.16	  873.30
     79.7630	 1889.00	 1814.14	-1301.39	  870.10
     79.7890	 1920.00	 1803.31	-1259.56	  866.83
     79.8150	 1928.00	 1792.42	-1240.67	  863.49
     79.8410	 1892.00	 1781.48	-1265.73	  860.07
     79.8670	 1909.00	 1770.49	-1237.74	  856.58
     18.2286	        	        	        	        	       0	(  1  1  1)	  0  1
     18.2748	        	        	        	        	       0	(  1  1  1)	  0  2
     29.9828	        	        	        	        	       0	(  2  2  0)	  0  1
     30.0598	        	        	        	        	       0	(  2  2  0)	  0  2
     35.3145	        	        	        	        	       0	(  3  1  1)	  0  1
     35.4061	        	        	        	        	       0	(  3  1  1)	  0  2
     36.9402	        	        	        	        	       0	(  2  2  2)	  0  1
     37.0363	        	        	        	        	       0	(  2  2  2)	  0  2
     42.9162	        	        	        	        	       0	(  4  0  0)	  0  1
     43.0292	        	        	        	        	       0	(  4  0  0)	  0  2
     46.9868	        	        	        	        	       0	(  3  3  1)	  0  1
     47.1118	        	        	        	        	       0	(  3  3  1)	  0  2
     53.2356	        	        	        	        	       0	(  4  2  2)	  0  1
     53.3797	        	        	        	        	       0	(  4  2  2)	  0  2
     56.7467	        	        	        	        	       0	(  5  1  1)	  0  1
     56.7467	        	        	        	        	       0	(  3  3  3)	  0  1
     56.9020	        	        	        	        	       0	(  5  1  1)	  0  2
     56.9020	        	        	        	        	       0	(  3  3  3)	  0  2
     62.3091	        	        	        	        	       0	(  4  4  0)	  0  1
     62.4830	        	        	        	        	       0	(  4  4  0)	  0  2
     65.5111	        	        	        	        	       0	(  5  3  1)	  0  1
     65.6962	        	        	        	        	       0	(  5  3  1)	  0  2
     66.5600	        	        	        	        	       0	(  4  4  2)	  0  1
     66.7488	        	        	        	        	       0	(  4  4  2)	  0  2
     70.6780	        	        	        	        	       0	(  6  2  0)	  0  1
     70.8820	        	        	        	        	       0	(  6  2  0)	  0  2
     73.6984	        	        	        	        	       0	(  5  3  3)	  0  1
     73.9141	        	        	        	        	       0	(  5  3  3)	  0  2
     74.6946	        	        	        	        	       0	(  6  2  2)	  0  1
     74.9142	        	        	        	        	       0	(  6  2  2)	  0  2
     78.6354	        	        	        	        	       0	(  4  4  4)	  0  1
     78.8711	        	        	        	        	       0	(  4  4  4)	  0  2
