 DD67    CELL:    8.43929   8.43929   8.43929   90.0000   90.0000   90.0000   SPGR: F d -3 m               TEMP:      0.00
  2   2874     1.54056     1.54439     0.00000     0.00000     0.00000    0
   95   22    0    0    0
 2Theta	Yobs	Ycal	Yobs-Ycal	Backg	Bragg	Posr	(hkl)	K
      5.1690	 5101.00	 5301.86	-1629.14	 4839.59	     18.1918	       0	(  1  1  1)	  0  1
      5.1950	 5130.00	 5277.32	-1575.60	 4815.03	     18.2374	       0	(  1  1  1)	  0  2
      5.2210	 5076.00	 5253.07	-1605.36	 4790.76	     29.9214	       0	(  2  2  0)	  0  1
      5.2470	 5107.00	 5229.11	-1550.39	 4766.77	     29.9974	       0	(  2  2  0)	  0  2
      5.2730	 5104.00	 5205.42	-1529.71	 4743.07	     35.2415	       0	(  3  1  1)	  0  1
      5.2990	 5082.00	 5182.02	-1528.30	 4719.64	     35.3319	       0	(  3  1  1)	  0  2
      5.3250	 5086.00	 5158.88	-1501.16	 4696.49	     36.8636	       0	(  2  2  2)	  0  1
      5.3510	 5042.00	 5136.02	-1522.30	 4673.61	     36.9301	    -357	(  1  1  1)	  0  1
      5.3770	 4999.00	 5113.42	-1542.71	 4650.99	     36.9585	       0	(  2  2  2)	  0  2
      5.4030	 5016.00	 5091.09	-1503.37	 4628.64	     37.0252	    -357	(  1  1  1)	  0  2
      5.4290	 4929.00	 5069.02	-1568.30	 4606.55	     42.8260	       0	(  4  0  0)	  0  1
      5.4550	 5026.00	 5047.21	-1449.49	 4584.72	     42.9043	    -357	(  2  0  0)	  0  1
      5.4810	 4961.00	 5025.65	-1492.93	 4563.13	     42.9377	       0	(  4  0  0)	  0  2
      5.5070	 4991.00	 5004.33	-1441.62	 4541.80	     43.0162	    -357	(  2  0  0)	  0  2
      5.5330	 5058.00	 4983.27	-1353.56	 4520.72	     46.8871	       0	(  3  3  1)	  0  1
      5.5590	 4994.00	 4962.46	-1396.74	 4499.88	     47.0106	       0	(  3  3  1)	  0  2
      5.5850	 4969.00	 4941.88	-1401.16	 4479.29	     53.1206	       0	(  4  2  2)	  0  1
      5.6110	 4815.00	 4921.54	-1534.82	 4458.93	     53.2630	       0	(  4  2  2)	  0  2
      5.6370	 4840.00	 4901.44	-1489.72	 4438.81	     56.6227	       0	(  3  3  3)	  0  1
      5.6630	 4818.00	 4881.57	-1491.85	 4418.92	     56.6227	       0	(  5  1  1)	  0  1
      5.6890	 4781.00	 4861.93	-1509.21	 4399.25	     56.7762	       0	(  3  3  3)	  0  2
      5.7150	 4794.00	 4842.52	-1476.80	 4379.82	     56.7762	       0	(  5  1  1)	  0  2
      5.7410	 4759.00	 4823.33	-1492.61	 4360.61	     62.1704	       0	(  4  4  0)	  0  1
      5.7670	 4820.00	 4804.35	-1412.64	 4341.62	     62.2908	    -357	(  2  2  0)	  0  1
      5.7930	 4767.00	 4785.61	-1446.89	 4322.85	     62.3421	       0	(  4  4  0)	  0  2
      5.8190	 4663.00	 4767.07	-1532.35	 4304.29	     62.4629	    -357	(  2  2  0)	  0  2
      5.8450	 4645.00	 4748.74	-1532.03	 4285.94	     65.3635	       0	(  5  3  1)	  0  1
      5.8710	 4754.00	 4730.63	-1404.91	 4267.81	     65.5462	       0	(  5  3  1)	  0  2
      5.8970	 4897.00	 4712.72	-1244.01	 4249.88	     66.4094	       0	(  4  4  2)	  0  1
      5.9230	 4765.00	 4695.02	-1358.31	 4232.16	     66.5958	       0	(  4  4  2)	  0  2
      5.9490	 4609.00	 4677.52	-1496.80	 4214.63	     70.5153	       0	(  6  2  0)	  0  1
      5.9750	 4642.00	 4660.22	-1446.50	 4197.31	     70.7168	       0	(  6  2  0)	  0  2
      6.0010	 4671.00	 4643.11	-1400.40	 4180.18	     73.5265	       0	(  5  3  3)	  0  1
      6.0270	 4677.00	 4626.20	-1377.48	 4163.25	     73.7394	       0	(  5  3  3)	  0  2
      6.0530	 4696.00	 4609.48	-1341.76	 4146.51	     74.5195	       0	(  6  2  2)	  0  1
      6.0790	 4632.00	 4592.95	-1389.23	 4129.96	     74.6714	    -357	(  3  1  1)	  0  1
      6.1050	 4616.00	 4576.61	-1388.89	 4113.59	     74.7363	       0	(  6  2  2)	  0  2
      6.1310	 4566.00	 4560.45	-1422.73	 4097.41	     74.8888	    -357	(  3  1  1)	  0  2
      6.1570	 4541.00	 4544.47	-1431.75	 4081.41	     78.4475	       0	(  4  4  4)	  0  1
      6.1830	 4542.00	 4528.67	-1414.95	 4065.59	     78.6105	    -357	(  2  2  2)	  0  1
      6.2090	 4546.00	 4513.04	-1395.33	 4049.94	     78.6801	       0	(  4  4  4)	  0  2
      6.2350	 4535.00	 4497.60	-1390.88	 4034.47	     78.8438	    -357	(  2  2  2)	  0  2
      6.2610	 4482.00	 4482.32	-1428.60	 4019.18	     81.3567	       0	(  5  5  1)	  0  1
      6.2870	 4456.00	 4467.22	-1439.50	 4004.05	     81.3567	       0	(  7  1  1)	  0  1
      6.3130	 4520.00	 4452.28	-1360.56	 3989.09	     81.6017	       0	(  5  5  1)	  0  2
      6.3390	 4529.00	 4437.51	-1336.79	 3974.29	     81.6017	       0	(  7  1  1)	  0  2
      6.3650	 4555.00	 4422.90	-1296.18	 3959.66	     86.1597	       0	(  6  4  2)	  0  1
      6.3910	 4579.00	 4408.45	-1257.73	 3945.20	     86.4262	       0	(  6  4  2)	  0  2
      6.4170	 4486.00	 4394.16	-1336.45	 3930.88	     89.0263	       0	(  5  5  3)	  0  1
      6.4430	 4441.00	 4380.03	-1367.32	 3916.73	     89.0263	       0	(  7  3  1)	  0  1
      6.4690	 4464.00	 4366.06	-1330.34	 3902.73	     89.3066	       0	(  5  5  3)	  0  2
      6.4950	 4503.00	 4352.24	-1277.52	 3888.89	     89.3066	       0	(  7  3  1)	  0  2
      6.5210	 4433.00	 4338.56	-1333.85	 3875.19	     93.8022	       0	(  8  0  0)	  0  1
      6.5470	 4322.00	 4325.04	-1431.32	 3861.65	     94.0157	    -357	(  4  0  0)	  0  1
      6.5730	 4241.00	 4311.66	-1498.95	 3848.25	     94.1070	       0	(  8  0  0)	  0  2
      6.5990	 4293.00	 4298.43	-1433.72	 3835.00	     94.3216	    -357	(  4  0  0)	  0  2
      6.6250	 4436.00	 4285.35	-1277.63	 3821.89	     96.6784	       0	(  7  3  3)	  0  1
      6.6510	 4439.00	 4272.40	-1261.68	 3808.92	     96.9989	       0	(  7  3  3)	  0  2
      6.6770	 4377.00	 4259.59	-1310.87	 3796.09	     97.6405	       0	(  6  4  4)	  0  1
      6.7030	 4313.00	 4246.92	-1362.20	 3783.39	     97.9665	       0	(  6  4  4)	  0  2
      6.7290	 4371.00	 4234.39	-1291.67	 3770.83	    101.5137	       0	(  6  6  0)	  0  1
      6.7550	 4362.00	 4221.99	-1288.27	 3758.41	    101.5137	       0	(  8  2  2)	  0  1
      6.7810	 4311.00	 4209.71	-1327.00	 3746.12	    101.8629	       0	(  6  6  0)	  0  2
      6.8070	 4202.00	 4197.58	-1423.86	 3733.96	    101.8629	       0	(  8  2  2)	  0  2
      6.8330	 4254.00	 4185.57	-1359.85	 3721.92	    104.4530	       0	(  5  5  5)	  0  1
      6.8590	 4261.00	 4173.68	-1340.97	 3710.01	    104.4530	       0	(  7  5  1)	  0  1
      6.8850	 4275.00	 4161.93	-1315.21	 3698.23	    104.8212	       0	(  5  5  5)	  0  2
      6.9110	 4198.00	 4150.29	-1380.57	 3686.57	    104.8212	       0	(  7  5  1)	  0  2
      6.9370	 4094.00	 4138.78	-1473.06	 3675.04	    105.4410	       0	(  6  6  2)	  0  1
      6.9630	 4026.00	 4127.38	-1529.66	 3663.62	    105.7036	    -357	(  3  3  1)	  0  1
      6.9890	 4115.00	 4116.11	-1429.39	 3652.32	    105.8159	       0	(  6  6  2)	  0  2
      7.0150	 4173.00	 4104.95	-1360.23	 3641.14	    106.0803	    -357	(  3  3  1)	  0  2
      7.0410	 4201.00	 4093.91	-1321.19	 3630.07	    109.4443	       0	(  8  4  0)	  0  1
      7.0670	 4112.00	 4082.98	-1399.26	 3619.12	    109.7270	    -357	(  4  2  0)	  0  1
      7.0930	 4024.00	 4072.16	-1476.44	 3608.28	    109.8478	       0	(  8  4  0)	  0  2
      7.1190	 4152.00	 4061.45	-1337.73	 3597.54	    110.1326	    -357	(  4  2  0)	  0  2
      7.1450	 4196.00	 4050.85	-1283.14	 3586.92	    112.5118	       0	(  7  5  3)	  0  1
      7.1710	 4148.00	 4040.36	-1320.65	 3576.41	    112.5119	       0	(  9  1  1)	  0  1
      7.1970	 4119.00	 4029.98	-1339.26	 3566.00	    112.9393	       0	(  7  5  3)	  0  2
      7.2230	 4095.00	 4019.70	-1352.98	 3555.70	    112.9393	       0	(  9  1  1)	  0  2
      7.2490	 4038.00	 4009.53	-1399.81	 3545.50	    113.5491	       0	(  8  4  2)	  0  1
      7.2750	 4036.00	 3999.45	-1391.73	 3535.40	    113.9851	       0	(  8  4  2)	  0  2
      7.3010	 4046.00	 3989.48	-1371.76	 3525.40	    117.7866	       0	(  6  6  4)	  0  1
      7.3270	 4046.00	 3979.60	-1361.89	 3515.50	    118.2601	       0	(  6  6  4)	  0  2
      7.3530	 4028.00	 3969.83	-1370.11	 3505.70	    121.0753	       0	(  9  3  1)	  0  1
      7.3790	 4048.00	 3960.15	-1340.43	 3495.99	    121.5813	       0	(  9  3  1)	  0  2
      7.4050	 3979.00	 3950.56	-1399.85	 3486.38	    126.8319	       0	(  8  4  4)	  0  1
      7.4310	 3972.00	 3941.07	-1397.35	 3476.87	    127.2321	    -357	(  4  2  2)	  0  1
      7.4570	 3876.00	 3931.67	-1483.96	 3467.45	    127.4037	       0	(  8  4  4)	  0  2
      7.4830	 3927.00	 3922.37	-1423.65	 3458.11	    127.8091	    -357	(  4  2  2)	  0  2
      7.5090	 3954.00	 3913.15	-1387.43	 3448.87	    130.5004	       0	(  7  5  5)	  0  1
      7.5350	 3918.00	 3904.02	-1414.31	 3439.72	    130.5004	       0	(  7  7  1)	  0  1
      7.5610	 3856.00	 3894.98	-1467.27	 3430.65	    130.5004	       0	(  9  3  3)	  0  1
      7.5870	 3952.00	 3886.03	-1362.31	 3421.67	    131.1216	       0	(  7  5  5)	  0  2
      7.6130	 3901.00	 3877.16	-1404.44	 3412.78	    131.1216	       0	(  7  7  1)	  0  2
      7.6390	 3898.00	 3868.38	-1398.66	 3403.97	    131.1216	       0	(  9  3  3)	  0  2
      7.6650	 4024.00	 3859.68	-1263.96	 3395.24	    137.1181	       0	( 10  2  0)	  0  1
      7.6910	 3978.00	 3851.06	-1301.34	 3386.60	    137.1181	       0	(  8  6  2)	  0  1
      7.7170	 3904.00	 3842.52	-1366.80	 3378.04	    137.8491	       0	( 10  2  0)	  0  2
      7.7430	 3947.00	 3834.06	-1315.35	 3369.55	    137.8491	       0	(  8  6  2)	  0  2
      7.7690	 3905.00	 3825.68	-1348.96	 3361.15	    141.5123	       0	(  7  7  3)	  0  1
      7.7950	 3823.00	 3817.38	-1422.66	 3352.82	    141.5123	       0	(  9  5  1)	  0  1
      7.8210	 3888.00	 3809.16	-1349.44	 3344.57	    142.3364	       0	(  7  7  3)	  0  2
      7.8470	 3788.00	 3801.01	-1441.29	 3336.39	    142.3365	       0	(  9  5  1)	  0  2
      7.8730	 3874.00	 3792.93	-1347.21	 3328.29	    143.0731	       0	(  6  6  6)	  0  1
      7.8990	 3837.00	 3784.93	-1376.21	 3320.26	    143.0731	       0	( 10  2  2)	  0  1
      7.9250	 3949.00	 3777.00	-1256.28	 3312.31	    143.6757	    -357	(  3  3  3)	  0  1
      7.9510	 3735.00	 3769.14	-1462.43	 3304.42	    143.6757	    -357	(  5  1  1)	  0  1
      7.9770	 3807.00	 3761.35	-1382.64	 3296.61	    143.9357	       0	(  6  6  6)	  0  2
      8.0030	 3799.00	 3753.64	-1382.92	 3288.86	    143.9356	       0	( 10  2  2)	  0  2
      8.0290	 3751.00	 3745.99	-1423.27	 3281.19	    144.5539	    -357	(  3  3  3)	  0  2
      8.0550	 3635.00	 3738.41	-1531.69	 3273.58	    144.5539	    -357	(  5  1  1)	  0  2
      8.0810	 3704.00	 3730.90	-1455.18	 3266.04	    156.3526	       0	(  9  5  3)	  0  1
      8.1070	 3683.00	 3723.45	-1468.73	 3258.57	    157.7537	       0	(  9  5  3)	  0  2
      8.1330	 3624.00	 3716.07	-1520.35	 3251.16	    158.8585	       0	(  8  6  4)	  0  1
      8.1590	 3658.00	 3708.75	-1479.03	 3243.81	    160.4430	       0	(  8  6  4)	  0  2
      8.1850	 3634.00	 3701.49	-1495.77	 3236.53	    177.9129	       0	( 10  4  2)	  0  1
      8.2110	 3732.00	 3694.30	-1390.58	 3229.31
      8.2370	 3660.00	 3687.17	-1455.45	 3222.15
      8.2630	 3705.00	 3680.10	-1403.38	 3215.06
      8.2890	 3691.00	 3673.09	-1410.37	 3208.02
      8.3150	 3636.00	 3666.14	-1458.43	 3201.04
      8.3410	 3585.00	 3659.25	-1502.53	 3194.12
      8.3670	 3614.00	 3652.42	-1466.70	 3187.26
      8.3930	 3660.00	 3645.64	-1413.93	 3180.46
      8.4190	 3674.00	 3638.92	-1393.21	 3173.71
      8.4450	 3631.00	 3632.26	-1429.54	 3167.02
      8.4710	 3529.00	 3625.65	-1524.93	 3160.38
      8.4970	 3601.00	 3619.10	-1446.38	 3153.80
      8.5230	 3638.00	 3612.60	-1402.88	 3147.27
      8.5490	 3657.00	 3606.15	-1377.43	 3140.80
      8.5750	 3660.00	 3599.75	-1368.04	 3134.37
      8.6010	 3620.00	 3593.41	-1401.69	 3128.00
      8.6270	 3664.00	 3587.12	-1351.40	 3121.68
      8.6530	 3608.00	 3580.87	-1401.16	 3115.41
      8.6790	 3541.00	 3574.68	-1461.96	 3109.18
      8.7050	 3531.00	 3568.54	-1465.82	 3103.01
      8.7310	 3498.00	 3562.44	-1492.72	 3096.89
      8.7570	 3577.00	 3556.39	-1407.68	 3090.81
      8.7830	 3610.00	 3550.39	-1368.68	 3084.78
      8.8090	 3557.00	 3544.44	-1415.72	 3078.80
      8.8350	 3457.00	 3538.53	-1509.82	 3072.86
      8.8610	 3526.00	 3532.67	-1434.95	 3066.97
      8.8870	 3580.00	 3526.85	-1375.14	 3061.12
      8.9130	 3526.00	 3521.08	-1423.37	 3055.32
      8.9390	 3497.00	 3515.36	-1446.64	 3049.56
      8.9650	 3506.00	 3509.67	-1431.95	 3043.85
      8.9910	 3507.00	 3504.03	-1425.31	 3038.18
      9.0170	 3478.00	 3498.43	-1448.71	 3032.55
      9.0430	 3482.00	 3492.87	-1439.16	 3026.96
      9.0690	 3464.00	 3487.36	-1451.64	 3021.42
      9.0950	 3453.00	 3481.88	-1457.17	 3015.91
      9.1210	 3458.00	 3476.45	-1446.73	 3010.45
      9.1470	 3472.00	 3471.05	-1427.34	 3005.02
      9.1730	 3421.00	 3465.70	-1472.98	 2999.64
      9.1990	 3376.00	 3460.39	-1512.67	 2994.29
      9.2250	 3405.00	 3455.11	-1478.39	 2988.98
      9.2510	 3484.00	 3449.87	-1394.16	 2983.72
      9.2770	 3463.00	 3444.67	-1409.96	 2978.48
      9.3030	 3377.00	 3439.51	-1490.79	 2973.29
      9.3290	 3393.00	 3434.39	-1469.67	 2968.14
      9.3550	 3332.00	 3429.30	-1525.58	 2963.02
      9.3810	 3366.00	 3424.25	-1486.53	 2957.93
      9.4070	 3344.00	 3419.23	-1503.51	 2952.89
      9.4330	 3492.00	 3414.25	-1350.53	 2947.87
      9.4590	 3605.00	 3409.31	-1232.59	 2942.90
      9.4850	 3555.00	 3404.40	-1277.68	 2937.96
      9.5110	 3439.00	 3399.52	-1388.81	 2933.05
      9.5370	 3313.00	 3394.68	-1509.96	 2928.18
      9.5630	 3292.00	 3389.88	-1526.16	 2923.34
      9.5890	 3281.00	 3385.10	-1532.38	 2918.53
      9.6150	 3294.00	 3380.36	-1514.64	 2913.76
      9.6410	 3294.00	 3375.66	-1509.94	 2909.02
      9.6670	 3249.00	 3370.98	-1550.26	 2904.31
      9.6930	 3201.00	 3366.34	-1593.62	 2899.64
      9.7190	 3252.00	 3361.73	-1538.01	 2895.00
      9.7450	 3255.00	 3357.15	-1530.43	 2890.38
      9.7710	 3424.00	 3352.60	-1356.89	 2885.80
      9.7970	 3216.00	 3348.09	-1560.37	 2881.25
      9.8230	 3260.00	 3343.60	-1511.89	 2876.74
      9.8490	 3264.00	 3339.15	-1503.43	 2872.25
      9.8750	 3284.00	 3334.73	-1479.01	 2867.79
      9.9010	 3334.00	 3330.33	-1424.62	 2863.37
      9.9270	 3200.00	 3325.97	-1554.25	 2858.97
      9.9530	 3222.00	 3321.64	-1527.92	 2854.60
      9.9790	 3193.00	 3317.33	-1552.62	 2850.26
     10.0050	 3331.00	 3313.06	-1410.34	 2845.96
     10.0310	 3084.00	 3308.81	-1653.10	 2841.67
     10.0570	 3230.00	 3304.60	-1502.88	 2837.42
     10.0830	 3176.00	 3300.41	-1552.69	 2833.20
     10.1090	 3241.00	 3296.25	-1483.53	 2829.01
     10.1350	 3230.00	 3292.12	-1490.40	 2824.84
     10.1610	 3210.00	 3288.01	-1506.30	 2820.70
     10.1870	 3163.00	 3283.94	-1549.22	 2816.59
     10.2130	 3196.00	 3279.89	-1512.17	 2812.51
     10.2390	 3167.00	 3275.86	-1537.15	 2808.45
     10.2650	 3237.00	 3271.87	-1463.15	 2804.42
     10.2910	 3125.00	 3267.90	-1571.19	 2800.42
     10.3170	 3188.00	 3263.96	-1504.25	 2796.44
     10.3430	 3139.00	 3260.05	-1549.33	 2792.49
     10.3690	 3116.00	 3256.16	-1568.45	 2788.57
     10.3950	 3037.00	 3252.30	-1643.59	 2784.67
     10.4210	 3085.00	 3248.47	-1591.75	 2780.80
     10.4470	 3252.00	 3244.66	-1420.94	 2776.96
     10.4730	 3074.00	 3240.88	-1595.16	 2773.14
     10.4990	 3161.00	 3237.12	-1504.40	 2769.34
     10.5250	 3148.00	 3233.39	-1513.67	 2765.58
     10.5510	 3080.00	 3229.68	-1577.97	 2761.83
     10.5770	 3137.00	 3226.00	-1517.29	 2758.12
     10.6030	 3192.00	 3222.35	-1458.63	 2754.43
     10.6290	 3097.00	 3218.72	-1550.00	 2750.76
     10.6550	 3155.00	 3215.11	-1488.40	 2747.12
     10.6810	 3061.00	 3211.53	-1578.82	 2743.50
     10.7070	 3039.00	 3207.98	-1597.26	 2739.90
     10.7330	 3196.00	 3204.45	-1436.73	 2736.34
     10.7590	 3191.00	 3200.94	-1438.22	 2732.79
     10.7850	 3189.00	 3197.46	-1436.74	 2729.27
     10.8110	 3215.00	 3194.00	-1407.28	 2725.78
     10.8370	 3199.00	 3190.57	-1419.85	 2722.30
     10.8630	 3091.00	 3187.16	-1524.44	 2718.86
     10.8890	 3093.00	 3183.77	-1519.06	 2715.43
     10.9150	 3106.00	 3180.41	-1502.69	 2712.03
     10.9410	 3097.00	 3177.07	-1508.36	 2708.66
     10.9670	 3052.00	 3173.76	-1550.04	 2705.30
     10.9930	 3099.00	 3170.47	-1499.75	 2701.98
     11.0190	 3131.00	 3167.20	-1464.49	 2698.67
     11.0450	 3160.00	 3163.96	-1432.24	 2695.39
     11.0710	 3150.00	 3160.74	-1439.02	 2692.13
     11.0970	 3212.00	 3157.54	-1373.83	 2688.89
     11.1230	 3186.00	 3154.37	-1396.65	 2685.68
     11.1490	 3173.00	 3151.22	-1406.51	 2682.49
     11.1750	 3136.00	 3148.10	-1440.38	 2679.32
     11.2010	 3048.00	 3144.99	-1525.28	 2676.18
     11.2270	 3063.00	 3141.91	-1507.19	 2673.06
     11.2530	 3070.00	 3138.85	-1497.14	 2669.96
     11.2790	 3056.00	 3135.82	-1508.10	 2666.89
     11.3050	 3111.00	 3132.81	-1450.09	 2663.83
     11.3310	 3124.00	 3129.82	-1434.10	 2660.81
     11.3570	 3084.00	 3126.86	-1471.14	 2657.80
     11.3830	 3106.00	 3123.91	-1446.20	 2654.81
     11.4090	 3154.00	 3120.99	-1395.27	 2651.85
     11.4350	 3099.00	 3118.09	-1447.38	 2648.91
     11.4610	 3058.00	 3115.22	-1485.50	 2646.00
     11.4870	 3112.00	 3112.37	-1428.65	 2643.10
     11.5130	 3151.00	 3109.54	-1386.82	 2640.23
     11.5390	 3143.00	 3106.73	-1392.01	 2637.38
     11.5650	 3149.00	 3103.95	-1383.23	 2634.55
     11.5910	 3142.00	 3101.18	-1387.47	 2631.75
     11.6170	 3085.00	 3098.44	-1441.73	 2628.97
     11.6430	 3074.00	 3095.73	-1450.01	 2626.21
     11.6690	 3090.00	 3093.03	-1431.31	 2623.47
     11.6950	 3100.00	 3090.36	-1418.64	 2620.75
     11.7210	 3152.00	 3087.71	-1363.99	 2618.06
     11.7470	 3174.00	 3085.08	-1339.36	 2615.39
     11.7730	 3147.00	 3082.47	-1363.76	 2612.74
     11.7990	 3154.00	 3079.89	-1354.17	 2610.11
     11.8250	 3147.00	 3077.33	-1358.61	 2607.50
     11.8510	 3110.00	 3074.79	-1393.07	 2604.92
     11.8770	 3110.00	 3072.27	-1390.55	 2602.36
     11.9030	 3108.00	 3069.78	-1390.06	 2599.82
     11.9290	 3102.00	 3067.30	-1393.59	 2597.30
     11.9550	 3031.00	 3064.85	-1462.14	 2594.81
     11.9810	 3071.00	 3062.42	-1419.71	 2592.33
     12.0070	 3092.00	 3060.02	-1396.30	 2589.88
     12.0330	 3049.00	 3057.63	-1436.92	 2587.45
     12.0590	 3089.00	 3055.27	-1394.55	 2585.04
     12.0850	 3078.00	 3052.93	-1403.21	 2582.66
     12.1110	 3135.00	 3050.61	-1343.90	 2580.29
     12.1370	 3130.00	 3048.32	-1346.60	 2577.95
     12.1630	 3067.00	 3046.04	-1407.33	 2575.63
     12.1890	 3094.00	 3043.79	-1378.08	 2573.33
     12.2150	 3077.00	 3041.56	-1392.85	 2571.06
     12.2410	 3120.00	 3039.36	-1347.64	 2568.80
     12.2670	 3100.00	 3037.17	-1365.45	 2566.57
     12.2930	 3083.00	 3035.01	-1380.29	 2564.36
     12.3190	 3078.00	 3032.86	-1383.15	 2562.17
     12.3450	 3072.00	 3030.75	-1387.03	 2560.00
     12.3710	 3080.00	 3028.65	-1376.93	 2557.86
     12.3970	 3129.00	 3026.57	-1325.86	 2555.73
     12.4230	 3039.00	 3024.52	-1413.80	 2553.63
     12.4490	 3064.00	 3022.49	-1386.77	 2551.55
     12.4750	 3060.00	 3020.48	-1388.76	 2549.49
     12.5010	 3155.00	 3018.49	-1291.78	 2547.46
     12.5270	 2937.00	 3016.53	-1507.81	 2545.45
     12.5530	 3033.00	 3014.58	-1409.87	 2543.45
     12.5790	 3010.00	 3012.66	-1430.95	 2541.48
     12.6050	 3048.00	 3010.76	-1391.05	 2539.53
     12.6310	 3027.00	 3008.89	-1410.17	 2537.61
     12.6570	 3114.00	 3007.03	-1321.32	 2535.70
     12.6830	 2904.00	 3005.20	-1529.48	 2533.82
     12.7090	 3028.00	 3003.39	-1403.67	 2531.96
     12.7350	 3048.00	 3001.60	-1381.88	 2530.12
     12.7610	 3084.00	 2999.83	-1344.12	 2528.30
     12.7870	 2990.00	 2998.09	-1436.37	 2526.50
     12.8130	 3118.00	 2996.37	-1306.65	 2524.73
     12.8390	 2962.00	 2994.67	-1460.95	 2522.98
     12.8650	 3073.00	 2992.99	-1348.27	 2521.25
     12.8910	 3045.00	 2991.33	-1374.62	 2519.54
     12.9170	 3016.00	 2989.70	-1401.98	 2517.85
     12.9430	 3029.00	 2988.09	-1387.37	 2516.19
     12.9690	 3112.00	 2986.50	-1302.78	 2514.55
     12.9950	 3025.00	 2984.93	-1388.21	 2512.93
     13.0210	 3037.00	 2983.38	-1374.67	 2511.33
     13.0470	 3123.00	 2981.86	-1287.14	 2509.75
     13.0730	 3020.00	 2980.36	-1388.64	 2508.20
     13.0990	 2991.00	 2978.88	-1416.16	 2506.66
     13.1250	 3038.00	 2977.42	-1367.71	 2505.15
     13.1510	 3065.00	 2975.99	-1339.27	 2503.66
     13.1770	 3037.00	 2974.57	-1365.86	 2502.19
     13.2030	 3027.00	 2973.18	-1374.47	 2500.75
     13.2290	 3012.00	 2971.82	-1388.10	 2499.32
     13.2550	 2938.00	 2970.47	-1460.75	 2497.92
     13.2810	 3053.00	 2969.14	-1344.43	 2496.54
     13.3070	 3093.00	 2967.84	-1303.12	 2495.18
     13.3330	 3098.00	 2966.56	-1296.84	 2493.85
     13.3590	 3082.00	 2965.30	-1311.59	 2492.53
     13.3850	 3072.00	 2964.07	-1320.35	 2491.24
     13.4110	 2999.00	 2962.85	-1392.14	 2489.97
     13.4370	 3107.00	 2961.66	-1282.95	 2488.72
     13.4630	 3189.00	 2960.49	-1199.78	 2487.49
     13.4890	 3075.00	 2959.35	-1312.63	 2486.29
     13.5150	 3083.00	 2958.22	-1303.50	 2485.10
     13.5410	 3085.00	 2957.12	-1300.40	 2483.94
     13.5670	 3031.00	 2956.04	-1353.32	 2482.80
     13.5930	 3001.00	 2954.98	-1382.26	 2481.69
     13.6190	 3029.00	 2953.98	-1353.26	 2480.59
     13.6450	 3019.00	 2952.96	-1362.25	 2479.52
     13.6710	 3050.00	 2951.97	-1330.26	 2478.46
     13.6970	 2945.00	 2951.00	-1434.29	 2477.43
     13.7230	 2989.00	 2950.07	-1389.36	 2476.42
     13.7490	 3044.00	 2949.15	-1333.43	 2475.44
     13.7750	 3091.00	 2948.24	-1285.53	 2474.47
     13.8010	 3050.00	 2947.36	-1325.64	 2473.53
     13.8270	 2958.00	 2946.50	-1416.78	 2472.61
     13.8530	 2997.00	 2945.66	-1376.95	 2471.71
     13.8790	 3128.00	 2944.85	-1245.13	 2470.83
     13.9050	 3067.00	 2944.05	-1305.34	 2469.97
     13.9310	 2981.00	 2943.28	-1390.57	 2469.14
     13.9570	 3051.00	 2942.53	-1319.82	 2468.33
     13.9830	 3060.00	 2941.81	-1310.09	 2467.54
     14.0090	 3049.00	 2941.10	-1320.38	 2466.77
     14.0350	 3077.00	 2940.42	-1291.70	 2466.02
     14.0610	 3056.00	 2939.76	-1312.04	 2465.29
     14.0870	 2979.00	 2939.12	-1388.40	 2464.59
     14.1130	 2972.00	 2938.50	-1394.78	 2463.90
     14.1390	 3002.00	 2937.90	-1364.19	 2463.24
     14.1650	 3030.00	 2937.33	-1335.61	 2462.60
     14.1910	 3025.00	 2936.78	-1340.06	 2461.98
     14.2170	 2963.00	 2936.25	-1401.53	 2461.39
     14.2430	 2960.00	 2935.74	-1404.02	 2460.81
     14.2690	 2969.00	 2935.25	-1394.54	 2460.26
     14.2950	 2926.00	 2934.79	-1437.07	 2459.73
     14.3210	 2942.00	 2934.35	-1420.63	 2459.22
     14.3470	 2969.00	 2933.93	-1393.21	 2458.73
     14.3730	 2922.00	 2933.53	-1439.81	 2458.26
     14.3990	 2918.00	 2933.15	-1443.43	 2457.81
     14.4250	 2954.00	 2932.79	-1407.08	 2457.39
     14.4510	 2959.00	 2932.46	-1401.74	 2456.98
     14.4770	 2974.00	 2932.15	-1386.43	 2456.60
     14.5030	 3007.00	 2931.86	-1353.14	 2456.24
     14.5290	 2960.00	 2931.59	-1399.87	 2455.90
     14.5550	 3025.00	 2931.34	-1334.63	 2455.58
     14.5810	 3046.00	 2931.12	-1313.40	 2455.28
     14.6070	 2987.00	 2930.91	-1372.20	 2455.01
     14.6330	 2904.00	 2930.73	-1455.01	 2454.75
     14.6590	 2884.00	 2930.57	-1474.85	 2454.52
     14.6850	 2941.00	 2930.43	-1417.71	 2454.30
     14.7110	 2918.00	 2930.31	-1440.60	 2454.11
     14.7370	 2966.00	 2930.22	-1392.50	 2453.94
     14.7630	 2917.00	 2930.14	-1441.42	 2453.79
     14.7890	 2850.00	 2930.09	-1508.37	 2453.66
     14.8150	 2888.00	 2930.05	-1470.34	 2453.55
     14.8410	 2978.00	 2930.04	-1380.33	 2453.46
     14.8670	 2903.00	 2930.05	-1455.34	 2453.39
     14.8930	 2824.00	 2930.08	-1534.37	 2453.35
     14.9190	 2851.00	 2930.14	-1507.42	 2453.32
     14.9450	 2855.00	 2930.21	-1503.49	 2453.31
     14.9710	 2922.00	 2930.30	-1436.59	 2453.33
     14.9970	 2899.00	 2930.42	-1459.70	 2453.36
     15.0230	 2829.00	 2930.56	-1529.84	 2453.42
     15.0490	 2821.00	 2930.71	-1538.00	 2453.50
     15.0750	 2926.00	 2930.89	-1433.17	 2453.59
     15.1010	 2899.00	 2931.09	-1460.37	 2453.71
     15.1270	 2833.00	 2931.31	-1526.59	 2453.85
     15.1530	 2817.00	 2931.55	-1542.84	 2454.01
     15.1790	 2878.00	 2931.81	-1482.10	 2454.18
     15.2050	 2852.00	 2932.10	-1508.38	 2454.38
     15.2310	 2796.00	 2932.40	-1564.68	 2454.60
     15.2570	 2894.00	 2932.72	-1467.01	 2454.84
     15.2830	 2907.00	 2933.07	-1454.35	 2455.10
     15.3090	 2907.00	 2933.43	-1454.72	 2455.37
     15.3350	 2949.00	 2933.82	-1413.10	 2455.67
     15.3610	 2889.00	 2934.22	-1473.51	 2455.99
     15.3870	 2883.00	 2934.65	-1479.93	 2456.33
     15.4130	 2803.00	 2935.10	-1560.38	 2456.68
     15.4390	 2831.00	 2935.56	-1532.85	 2457.06
     15.4650	 2893.00	 2936.05	-1471.33	 2457.46
     15.4910	 2925.00	 2936.56	-1439.84	 2457.87
     15.5170	 2902.00	 2937.08	-1463.37	 2458.31
     15.5430	 2959.00	 2937.63	-1406.91	 2458.76
     15.5690	 2915.00	 2938.20	-1451.48	 2459.24
     15.5950	 2836.00	 2938.79	-1531.07	 2459.73
     15.6210	 2889.00	 2939.39	-1478.68	 2460.24
     15.6470	 2828.00	 2940.02	-1540.30	 2460.77
     15.6730	 2960.00	 2940.67	-1408.95	 2461.32
     15.6990	 2965.00	 2941.33	-1404.62	 2461.89
     15.7250	 2908.00	 2942.02	-1462.30	 2462.48
     15.7510	 2946.00	 2942.73	-1425.01	 2463.09
     15.7770	 2939.00	 2943.45	-1432.73	 2463.71
     15.8030	 2920.00	 2944.20	-1452.48	 2464.36
     15.8290	 2872.00	 2944.96	-1501.24	 2465.02
     15.8550	 2920.00	 2945.75	-1454.03	 2465.70
     15.8810	 3007.00	 2946.55	-1367.83	 2466.40
     15.9070	 2985.00	 2947.37	-1390.65	 2467.12
     15.9330	 2947.00	 2948.21	-1429.50	 2467.85
     15.9590	 2902.00	 2949.07	-1475.36	 2468.61
     15.9850	 2865.00	 2949.95	-1513.24	 2469.38
     16.0110	 2905.00	 2950.85	-1474.13	 2470.17
     16.0370	 2924.00	 2951.77	-1456.05	 2470.98
     16.0630	 2921.00	 2952.71	-1459.99	 2471.81
     16.0890	 2969.00	 2953.66	-1412.94	 2472.65
     16.1150	 2905.00	 2954.64	-1477.92	 2473.51
     16.1410	 2961.00	 2955.63	-1422.91	 2474.39
     16.1670	 2803.00	 2956.64	-1581.92	 2475.29
     16.1930	 2938.00	 2957.67	-1447.95	 2476.20
     16.2190	 2910.00	 2958.72	-1477.00	 2477.13
     16.2450	 2916.00	 2959.79	-1472.07	 2478.08
     16.2710	 2955.00	 2960.87	-1434.15	 2479.05
     16.2970	 2914.00	 2961.97	-1476.26	 2480.03
     16.3230	 2923.00	 2963.10	-1468.38	 2481.03
     16.3490	 2974.00	 2964.24	-1418.52	 2482.05
     16.3750	 2988.00	 2965.39	-1405.68	 2483.08
     16.4010	 2977.00	 2966.57	-1417.85	 2484.13
     16.4270	 3066.00	 2967.76	-1330.05	 2485.20
     16.4530	 3077.00	 2968.97	-1320.26	 2486.28
     16.4790	 2992.00	 2970.20	-1406.49	 2487.38
     16.5050	 3048.00	 2971.45	-1351.73	 2488.50
     16.5310	 2949.00	 2972.71	-1452.00	 2489.63
     16.5570	 2908.00	 2974.00	-1494.28	 2490.78
     16.5830	 2984.00	 2975.30	-1419.58	 2491.95
     16.6090	 3028.00	 2976.61	-1376.90	 2493.13
     16.6350	 3020.00	 2977.95	-1386.23	 2494.32
     16.6610	 2989.00	 2979.30	-1418.58	 2495.54
     16.6870	 2975.00	 2980.67	-1433.95	 2496.76
     16.7130	 2942.00	 2982.05	-1468.33	 2498.01
     16.7390	 2957.00	 2983.45	-1454.73	 2499.27
     16.7650	 3022.00	 2984.87	-1391.15	 2500.54
     16.7910	 3016.00	 2986.31	-1398.59	 2501.83
     16.8170	 3054.00	 2987.76	-1362.04	 2503.13
     16.8430	 3104.00	 2989.23	-1313.51	 2504.45
     16.8690	 3043.00	 2990.71	-1375.99	 2505.79
     16.8950	 3011.00	 2992.21	-1409.50	 2507.14
     16.9210	 3019.00	 2993.73	-1403.01	 2508.50
     16.9470	 3040.00	 2995.26	-1383.55	 2509.88
     16.9730	 3031.00	 2996.81	-1394.09	 2511.27
     16.9990	 2975.00	 2998.38	-1451.66	 2512.68
     17.0250	 2998.00	 2999.96	-1430.24	 2514.10
     17.0510	 3047.00	 3001.55	-1382.84	 2515.53
     17.0770	 3062.00	 3003.17	-1369.45	 2516.98
     17.1030	 3027.00	 3004.79	-1406.08	 2518.45
     17.1290	 3031.00	 3006.43	-1403.72	 2519.92
     17.1550	 3102.00	 3008.09	-1334.37	 2521.41
     17.1810	 3077.00	 3009.76	-1361.05	 2522.92
     17.2070	 3012.00	 3011.45	-1427.73	 2524.43
     17.2330	 2985.00	 3013.15	-1456.43	 2525.96
     17.2590	 3049.00	 3014.86	-1394.15	 2527.51
     17.2850	 3091.00	 3016.59	-1353.88	 2529.07
     17.3110	 3002.00	 3018.34	-1444.62	 2530.64
     17.3370	 3085.00	 3020.09	-1363.38	 2532.22
     17.3630	 3020.00	 3021.86	-1430.15	 2533.81
     17.3890	 3021.00	 3023.65	-1430.93	 2535.42
     17.4150	 3088.00	 3025.44	-1365.73	 2537.04
     17.4410	 3081.00	 3027.25	-1374.54	 2538.67
     17.4670	 3044.00	 3029.07	-1413.36	 2540.32
     17.4930	 3057.00	 3030.91	-1402.19	 2541.98
     17.5190	 3135.00	 3032.75	-1326.04	 2543.65
     17.5450	 3093.00	 3034.61	-1369.90	 2545.33
     17.5710	 3096.00	 3036.48	-1368.76	 2547.02
     17.5970	 3080.00	 3038.36	-1386.65	 2548.72
     17.6230	 3163.00	 3040.25	-1305.54	 2550.44
     17.6490	 3101.00	 3042.16	-1369.44	 2552.17
     17.6750	 3012.00	 3044.07	-1460.35	 2553.90
     17.7010	 3062.00	 3045.99	-1412.27	 2555.65
     17.7270	 3075.00	 3047.92	-1401.21	 2557.41
     17.7530	 3150.00	 3049.87	-1328.15	 2559.18
     17.7790	 3061.00	 3051.82	-1419.10	 2560.97
     17.8050	 3014.00	 3053.78	-1468.06	 2562.76
     17.8310	 3092.00	 3055.75	-1392.03	 2564.56
     17.8570	 3134.00	 3057.72	-1352.00	 2566.37
     17.8830	 3041.00	 3059.71	-1446.99	 2568.20
     17.9090	 3107.00	 3061.70	-1382.98	 2570.03
     17.9350	 3076.00	 3063.70	-1415.98	 2571.87
     17.9610	 3056.00	 3065.70	-1437.99	 2573.73
     17.9870	 3030.00	 3067.72	-1466.00	 2575.59
     18.0130	 3002.00	 3069.74	-1496.02	 2577.46
     18.0390	 3229.00	 3071.76	-1271.05	 2579.34
     18.0650	 3146.00	 3073.79	-1356.08	 2581.23
     18.0910	 3129.00	 3075.83	-1375.11	 2583.13
     18.1170	 3058.00	 3077.87	-1448.16	 2585.04
     18.1430	 3052.00	 3079.92	-1456.20	 2586.96
     18.1690	 3090.00	 3081.98	-1420.26	 2588.89
     18.1950	 3057.00	 3084.03	-1455.32	 2590.82
     18.2210	 3110.00	 3086.10	-1404.38	 2592.77
     18.2470	 3151.00	 3088.17	-1365.45	 2594.72
     18.2730	 3093.00	 3090.24	-1425.52	 2596.68
     18.2990	 3046.00	 3092.31	-1474.60	 2598.65
     18.3250	 3015.00	 3094.40	-1507.68	 2600.62
     18.3510	 3017.00	 3096.48	-1507.76	 2602.60
     18.3770	 3050.00	 3098.57	-1476.85	 2604.60
     18.4030	 3040.00	 3100.67	-1488.95	 2606.59
     18.4290	 3067.00	 3102.77	-1464.05	 2608.60
     18.4550	 3152.00	 3104.87	-1381.15	 2610.61
     18.4810	 3161.00	 3106.97	-1374.26	 2612.63
     18.5070	 3056.00	 3109.09	-1481.37	 2614.66
     18.5330	 3100.00	 3111.20	-1439.48	 2616.69
     18.5590	 3027.00	 3113.32	-1514.60	 2618.74
     18.5850	 3098.00	 3115.45	-1445.73	 2620.78
     18.6110	 3091.00	 3117.57	-1454.86	 2622.84
     18.6370	 3115.00	 3119.71	-1432.99	 2624.90
     18.6630	 3149.00	 3121.84	-1401.13	 2626.96
     18.6890	 3138.00	 3123.99	-1414.27	 2629.03
     18.7150	 3087.00	 3126.13	-1467.42	 2631.11
     18.7410	 3062.00	 3128.28	-1494.57	 2633.19
     18.7670	 3124.00	 3130.44	-1434.72	 2635.28
     18.7930	 3075.00	 3132.60	-1485.88	 2637.38
     18.8190	 3100.00	 3134.77	-1463.05	 2639.48
     18.8450	 3137.00	 3136.94	-1428.22	 2641.58
     18.8710	 3125.00	 3139.11	-1442.39	 2643.69
     18.8970	 3114.00	 3141.29	-1455.57	 2645.80
     18.9230	 3087.00	 3143.48	-1484.76	 2647.92
     18.9490	 3168.00	 3145.67	-1405.95	 2650.05
     18.9750	 3118.00	 3147.86	-1458.14	 2652.17
     19.0010	 3130.00	 3150.06	-1448.34	 2654.30
     19.0270	 3137.00	 3152.26	-1443.55	 2656.44
     19.0530	 3078.00	 3154.47	-1504.76	 2658.58
     19.0790	 3016.00	 3156.69	-1568.97	 2660.72
     19.1050	 2995.00	 3158.91	-1592.19	 2662.87
     19.1310	 3054.00	 3161.13	-1535.41	 2665.02
     19.1570	 3053.00	 3163.36	-1538.64	 2667.18
     19.1830	 3127.00	 3165.59	-1466.87	 2669.33
     19.2090	 3157.00	 3167.83	-1439.11	 2671.49
     19.2350	 3106.00	 3170.07	-1492.35	 2673.66
     19.2610	 3082.00	 3172.64	-1518.93	 2675.82
     19.2870	 3090.00	 3174.89	-1513.18	 2677.99
     19.3130	 3094.00	 3177.15	-1511.43	 2680.16
     19.3390	 3123.00	 3179.41	-1484.69	 2682.34
     19.3650	 3148.00	 3181.83	-1462.12	 2684.51
     19.3910	 3127.00	 3184.10	-1485.39	 2686.69
     19.4170	 3136.00	 3186.37	-1478.66	 2688.87
     19.4430	 3098.00	 3188.65	-1518.93	 2691.05
     19.4690	 3039.00	 3190.93	-1580.21	 2693.24
     19.4950	 3034.00	 3193.21	-1587.49	 2695.42
     19.5210	 3018.00	 3195.49	-1605.78	 2697.61
     19.5470	 3085.00	 3197.78	-1541.07	 2699.79
     19.5730	 3159.00	 3200.07	-1469.36	 2701.98
     19.5990	 3152.00	 3202.37	-1478.65	 2704.17
     19.6250	 3139.00	 3204.67	-1493.95	 2706.36
     19.6510	 3157.00	 3206.97	-1478.25	 2708.55
     19.6770	 3182.00	 3209.27	-1455.55	 2710.74
     19.7030	 3112.00	 3211.57	-1527.86	 2712.94
     19.7290	 3104.00	 3213.88	-1538.16	 2715.13
     19.7550	 3120.00	 3216.19	-1524.47	 2717.32
     19.7810	 3178.00	 3218.50	-1468.78	 2719.51
     19.8070	 3150.00	 3220.81	-1499.10	 2721.70
     19.8330	 3093.00	 3223.13	-1558.41	 2723.89
     19.8590	 3136.00	 3225.45	-1517.73	 2726.08
     19.8850	 3210.00	 3227.76	-1446.05	 2728.27
     19.9110	 3208.00	 3230.08	-1450.36	 2730.46
     19.9370	 3167.00	 3232.40	-1493.68	 2732.65
     19.9630	 3223.00	 3234.72	-1440.01	 2734.84
     19.9890	 3215.00	 3237.04	-1450.33	 2737.02
     20.0150	 3202.00	 3239.37	-1465.65	 2739.21
     20.0410	 3178.00	 3241.69	-1491.97	 2741.39
     20.0670	 3160.00	 3244.01	-1512.29	 2743.57
     20.0930	 3224.00	 3246.33	-1450.62	 2745.75
     20.1190	 3267.00	 3248.66	-1409.94	 2747.93
     20.1450	 3238.00	 3250.98	-1441.26	 2750.10
     20.1710	 3192.00	 3253.30	-1489.59	 2752.28
     20.1970	 3211.00	 3255.62	-1472.91	 2754.45
     20.2230	 3212.00	 3257.95	-1474.23	 2756.62
     20.2490	 3153.00	 3260.27	-1535.55	 2758.78
     20.2750	 3133.00	 3262.59	-1557.87	 2760.94
     20.3010	 3140.00	 3264.91	-1553.19	 2763.10
     20.3270	 3157.00	 3267.22	-1538.51	 2765.26
     20.3530	 3209.00	 3269.54	-1488.82	 2767.41
     20.3790	 3199.00	 3271.86	-1501.14	 2769.56
     20.4050	 3320.00	 3274.17	-1382.45	 2771.71
     20.4310	 3252.00	 3276.48	-1452.76	 2773.85
     20.4570	 3290.00	 3278.79	-1417.07	 2775.99
     20.4830	 3356.00	 3281.10	-1353.38	 2778.13
     20.5090	 3144.00	 3283.41	-1567.69	 2780.26
     20.5350	 3292.00	 3285.71	-1421.99	 2782.39
     20.5610	 3185.00	 3288.01	-1531.29	 2784.51
     20.5870	 3238.00	 3290.31	-1480.59	 2786.63
     20.6130	 3281.00	 3292.60	-1439.89	 2788.74
     20.6390	 3371.00	 3294.90	-1352.18	 2790.85
     20.6650	 3316.00	 3297.19	-1409.47	 2792.96
     20.6910	 3164.00	 3299.47	-1563.76	 2795.06
     20.7170	 3333.00	 3301.76	-1397.04	 2797.15
     20.7430	 3367.00	 3304.04	-1365.32	 2799.24
     20.7690	 3300.00	 3306.32	-1434.60	 2801.32
     20.7950	 3242.00	 3308.59	-1494.87	 2803.40
     20.8210	 3256.00	 3310.86	-1483.14	 2805.48
     20.8470	 3231.00	 3313.12	-1510.41	 2807.54
     20.8730	 3257.00	 3315.39	-1486.67	 2809.60
     20.8990	 3321.00	 3317.64	-1424.93	 2811.66
     20.9250	 3208.00	 3319.90	-1540.18	 2813.71
     20.9510	 3373.00	 3322.14	-1377.43	 2815.75
     20.9770	 3213.00	 3324.39	-1539.67	 2817.78
     21.0030	 3259.00	 3326.63	-1495.91	 2819.81
     21.0290	 3276.00	 3328.86	-1481.15	 2821.84
     21.0550	 3159.00	 3331.09	-1600.37	 2823.85
     21.0810	 3268.00	 3333.32	-1493.60	 2825.86
     21.1070	 3326.00	 3335.54	-1437.82	 2827.86
     21.1330	 3313.00	 3337.75	-1453.03	 2829.86
     21.1590	 3310.00	 3339.96	-1458.24	 2831.84
     21.1850	 3189.00	 3342.16	-1581.44	 2833.82
     21.2110	 3348.00	 3344.36	-1424.64	 2835.79
     21.2370	 3277.00	 3346.55	-1497.83	 2837.76
     21.2630	 3305.00	 3348.74	-1472.02	 2839.71
     21.2890	 3363.00	 3350.92	-1416.20	 2841.66
     21.3150	 3375.00	 3353.09	-1406.37	 2843.60
     21.3410	 3380.00	 3355.26	-1403.54	 2845.53
     21.3670	 3311.00	 3357.42	-1474.70	 2847.46
     21.3930	 3291.00	 3359.58	-1496.86	 2849.37
     21.4190	 3299.00	 3361.72	-1491.01	 2851.28
     21.4450	 3310.00	 3363.87	-1482.15	 2853.18
     21.4710	 3276.00	 3366.00	-1518.28	 2855.07
     21.4970	 3360.00	 3368.13	-1436.41	 2856.95
     21.5230	 3322.00	 3370.25	-1476.53	 2858.82
     21.5490	 3403.00	 3372.36	-1397.65	 2860.68
     21.5750	 3404.00	 3374.47	-1398.75	 2862.53
     21.6010	 3379.00	 3376.57	-1425.85	 2864.37
     21.6270	 3384.00	 3378.66	-1422.94	 2866.21
     21.6530	 3388.00	 3380.75	-1421.03	 2868.03
     21.6790	 3346.00	 3382.82	-1465.11	 2869.84
     21.7050	 3388.00	 3384.89	-1425.18	 2871.65
     21.7310	 3370.00	 3386.95	-1445.24	 2873.44
     21.7570	 3374.00	 3389.01	-1443.29	 2875.23
     21.7830	 3354.00	 3391.05	-1465.33	 2877.00
     21.8090	 3324.00	 3393.09	-1497.37	 2878.76
     21.8350	 3356.00	 3395.12	-1467.40	 2880.51
     21.8610	 3402.00	 3397.14	-1423.42	 2882.26
     21.8870	 3389.00	 3399.15	-1438.43	 2883.99
     21.9130	 3373.00	 3401.16	-1456.44	 2885.71
     21.9390	 3425.00	 3403.15	-1406.43	 2887.42
     21.9650	 3436.00	 3405.14	-1397.42	 2889.11
     21.9910	 3393.00	 3407.11	-1442.40	 2890.80
     22.0170	 3413.00	 3409.08	-1424.37	 2892.48
     22.0430	 3483.00	 3411.04	-1356.33	 2894.14
     22.0690	 3505.00	 3413.00	-1336.28	 2895.79
     22.0950	 3432.00	 3414.94	-1411.22	 2897.44
     22.1210	 3394.00	 3416.87	-1451.15	 2899.07
     22.1470	 3439.00	 3418.79	-1408.08	 2900.68
     22.1730	 3414.00	 3420.71	-1434.99	 2902.29
     22.1990	 3414.00	 3422.61	-1436.89	 2903.88
     22.2250	 3434.00	 3424.51	-1418.79	 2905.46
     22.2510	 3400.00	 3426.39	-1454.68	 2907.03
     22.2770	 3448.00	 3428.27	-1408.55	 2908.59
     22.3030	 3425.00	 3430.13	-1433.42	 2910.14
     22.3290	 3367.00	 3431.99	-1493.27	 2911.67
     22.3550	 3405.00	 3433.84	-1457.12	 2913.19
     22.3810	 3461.00	 3435.67	-1402.96	 2914.69
     22.4070	 3487.00	 3437.50	-1378.78	 2916.19
     22.4330	 3463.00	 3439.32	-1404.60	 2917.67
     22.4590	 3451.00	 3441.12	-1418.40	 2919.14
     22.4850	 3406.00	 3442.92	-1465.20	 2920.59
     22.5110	 3543.00	 3444.70	-1329.98	 2922.03
     22.5370	 3467.00	 3446.48	-1407.76	 2923.46
     22.5630	 3502.00	 3448.24	-1374.52	 2924.87
     22.5890	 3539.00	 3450.00	-1339.28	 2926.28
     22.6150	 3466.00	 3451.74	-1414.02	 2927.66
     22.6410	 3324.00	 3453.47	-1557.75	 2929.04
     22.6670	 3427.00	 3455.19	-1456.48	 2930.40
     22.6930	 3510.00	 3456.90	-1375.19	 2931.74
     22.7190	 3556.00	 3458.61	-1330.89	 2933.07
     22.7450	 3486.00	 3460.29	-1402.58	 2934.39
     22.7710	 3460.00	 3461.97	-1430.26	 2935.70
     22.7970	 3548.00	 3463.64	-1343.92	 2936.99
     22.8230	 3457.00	 3465.30	-1436.58	 2938.26
     22.8490	 3556.00	 3466.94	-1339.23	 2939.52
     22.8750	 3532.00	 3468.58	-1364.86	 2940.77
     22.9010	 3521.00	 3470.20	-1377.48	 2942.00
     22.9270	 3527.00	 3471.81	-1373.09	 2943.22
     22.9530	 3516.00	 3473.41	-1385.70	 2944.42
     22.9790	 3468.00	 3475.00	-1435.29	 2945.60
     23.0050	 3508.00	 3476.58	-1396.86	 2946.78
     23.0310	 3540.00	 3478.15	-1366.43	 2947.93
     23.0570	 3465.00	 3479.70	-1442.98	 2949.08
     23.0830	 3424.00	 3481.25	-1485.53	 2950.20
     23.1090	 3569.00	 3482.78	-1342.06	 2951.31
     23.1350	 3550.00	 3484.30	-1362.58	 2952.41
     23.1610	 3564.00	 3485.81	-1350.09	 2953.49
     23.1870	 3545.00	 3487.30	-1370.59	 2954.56
     23.2130	 3610.00	 3488.79	-1307.07	 2955.61
     23.2390	 3605.00	 3490.26	-1313.55	 2956.64
     23.2650	 3534.00	 3491.73	-1386.01	 2957.66
     23.2910	 3510.00	 3493.18	-1411.46	 2958.66
     23.3170	 3570.00	 3494.61	-1352.90	 2959.65
     23.3430	 3567.00	 3496.04	-1357.32	 2960.62
     23.3690	 3534.00	 3497.46	-1391.74	 2961.57
     23.3950	 3525.00	 3498.86	-1402.14	 2962.51
     23.4210	 3588.00	 3500.25	-1340.53	 2963.43
     23.4470	 3551.00	 3501.63	-1378.91	 2964.34
     23.4730	 3583.00	 3503.00	-1348.28	 2965.23
     23.4990	 3668.00	 3504.36	-1264.64	 2966.10
     23.5250	 3602.00	 3505.70	-1331.98	 2966.96
     23.5510	 3589.00	 3507.03	-1346.32	 2967.80
     23.5770	 3558.00	 3508.35	-1378.64	 2968.62
     23.6030	 3495.00	 3509.66	-1442.94	 2969.43
     23.6290	 3653.00	 3510.96	-1286.24	 2970.22
     23.6550	 3521.00	 3512.24	-1419.53	 2970.99
     23.6810	 3456.00	 3513.52	-1485.80	 2971.75
     23.7070	 3536.00	 3514.78	-1407.06	 2972.49
     23.7330	 3661.00	 3516.03	-1283.31	 2973.21
     23.7590	 3672.00	 3517.26	-1273.55	 2973.92
     23.7850	 3601.00	 3518.49	-1345.77	 2974.61
     23.8110	 3665.00	 3519.70	-1282.98	 2975.28
     23.8370	 3626.00	 3520.90	-1323.19	 2975.93
     23.8630	 3584.00	 3522.09	-1366.38	 2976.57
     23.8890	 3627.00	 3523.27	-1324.55	 2977.19
     23.9150	 3564.00	 3524.44	-1388.72	 2977.79
     23.9410	 3622.00	 3525.59	-1331.87	 2978.38
     23.9670	 3677.00	 3526.73	-1278.02	 2978.95
     23.9930	 3642.00	 3527.87	-1314.15	 2979.50
     24.0190	 3631.00	 3528.99	-1326.27	 2980.03
     24.0450	 3681.00	 3530.09	-1277.38	 2980.54
     24.0710	 3606.00	 3531.19	-1353.47	 2981.04
     24.0970	 3637.00	 3532.27	-1323.56	 2981.52
     24.1230	 3647.00	 3533.35	-1314.63	 2981.98
     24.1490	 3664.00	 3534.41	-1298.69	 2982.43
     24.1750	 3633.00	 3535.46	-1330.74	 2982.85
     24.2010	 3700.00	 3536.50	-1264.78	 2983.26
     24.2270	 3658.00	 3537.52	-1307.81	 2983.65
     24.2530	 3582.00	 3538.54	-1384.82	 2984.02
     24.2790	 3637.00	 3539.55	-1330.83	 2984.38
     24.3050	 3604.00	 3540.54	-1364.82	 2984.71
     24.3310	 3627.00	 3541.52	-1342.81	 2985.03
     24.3570	 3610.00	 3542.49	-1360.78	 2985.33
     24.3830	 3547.00	 3543.45	-1424.74	 2985.61
     24.4090	 3591.00	 3544.40	-1381.69	 2985.88
     24.4350	 3597.00	 3545.34	-1376.63	 2986.12
     24.4610	 3620.00	 3546.27	-1354.55	 2986.35
     24.4870	 3619.00	 3547.19	-1356.47	 2986.56
     24.5130	 3605.00	 3548.09	-1371.38	 2986.75
     24.5390	 3647.00	 3548.99	-1330.27	 2986.92
     24.5650	 3656.00	 3549.88	-1322.16	 2987.07
     24.5910	 3667.00	 3550.75	-1312.03	 2987.21
     24.6170	 3614.00	 3551.62	-1365.90	 2987.32
     24.6430	 3581.00	 3552.47	-1399.75	 2987.42
     24.6690	 3615.00	 3553.32	-1366.60	 2987.50
     24.6950	 3598.00	 3554.15	-1384.43	 2987.56
     24.7210	 3564.00	 3554.98	-1419.26	 2987.60
     24.7470	 3589.00	 3555.79	-1395.08	 2987.62
     24.7730	 3586.00	 3556.60	-1398.88	 2987.63
     24.7990	 3580.00	 3557.39	-1405.68	 2987.61
     24.8250	 3632.00	 3558.18	-1354.46	 2987.58
     24.8510	 3589.00	 3558.96	-1398.24	 2987.53
     24.8770	 3617.00	 3559.73	-1371.01	 2987.46
     24.9030	 3659.00	 3560.49	-1329.77	 2987.37
     24.9290	 3613.00	 3561.24	-1376.52	 2987.26
     24.9550	 3626.00	 3561.98	-1364.26	 2987.13
     24.9810	 3644.00	 3562.71	-1347.00	 2986.98
     25.0070	 3603.00	 3563.44	-1388.72	 2986.82
     25.0330	 3580.00	 3564.15	-1412.44	 2986.63
     25.0590	 3625.00	 3564.86	-1368.15	 2986.43
     25.0850	 3695.00	 3565.56	-1298.85	 2986.21
     25.1110	 3716.00	 3566.26	-1278.54	 2985.97
     25.1370	 3708.00	 3566.94	-1287.23	 2985.71
     25.1630	 3696.00	 3567.62	-1299.90	 2985.43
     25.1890	 3713.00	 3568.29	-1283.58	 2985.13
     25.2150	 3734.00	 3568.96	-1263.24	 2984.81
     25.2410	 3614.00	 3569.61	-1383.90	 2984.48
     25.2670	 3614.00	 3570.26	-1384.55	 2984.12
     25.2930	 3686.00	 3570.91	-1313.19	 2983.75
     25.3190	 3698.00	 3571.55	-1301.83	 2983.35
     25.3450	 3685.00	 3572.18	-1315.46	 2982.94
     25.3710	 3626.00	 3572.80	-1375.09	 2982.51
     25.3970	 3713.00	 3573.42	-1288.71	 2982.06
     25.4230	 3612.00	 3574.04	-1390.32	 2981.59
     25.4490	 3635.00	 3574.65	-1367.93	 2981.10
     25.4750	 3642.00	 3575.26	-1361.54	 2980.59
     25.5010	 3619.00	 3575.86	-1385.14	 2980.07
     25.5270	 3604.00	 3576.45	-1400.74	 2979.52
     25.5530	 3638.00	 3577.05	-1367.33	 2978.96
     25.5790	 3559.00	 3577.64	-1446.92	 2978.37
     25.6050	 3653.00	 3578.22	-1353.50	 2977.77
     25.6310	 3638.00	 3578.80	-1369.09	 2977.14
     25.6570	 3619.00	 3579.38	-1388.67	 2976.50
     25.6830	 3597.00	 3579.96	-1411.24	 2975.84
     25.7090	 3549.00	 3580.54	-1459.82	 2975.16
     25.7350	 3596.00	 3581.11	-1413.39	 2974.46
     25.7610	 3697.00	 3581.68	-1312.96	 2973.74
     25.7870	 3736.00	 3582.25	-1274.53	 2973.01
     25.8130	 3574.00	 3582.82	-1437.10	 2972.25
     25.8390	 3543.00	 3583.39	-1468.67	 2971.47
     25.8650	 3666.00	 3583.96	-1346.24	 2970.68
     25.8910	 3652.00	 3584.53	-1360.81	 2969.87
     25.9170	 3527.00	 3585.10	-1486.38	 2969.03
     25.9430	 3583.00	 3585.67	-1430.95	 2968.18
     25.9690	 3614.00	 3586.24	-1400.52	 2967.31
     25.9950	 3572.00	 3586.81	-1443.10	 2966.42
     26.0210	 3629.00	 3587.39	-1386.67	 2965.51
     26.0470	 3525.00	 3587.97	-1491.25	 2964.58
     26.0730	 3675.00	 3588.55	-1341.83	 2963.64
     26.0990	 3587.00	 3589.14	-1430.42	 2962.67
     26.1250	 3574.00	 3589.73	-1444.01	 2961.69
     26.1510	 3673.00	 3590.32	-1345.60	 2960.68
     26.1770	 3585.00	 3590.92	-1434.20	 2959.66
     26.2030	 3588.00	 3591.52	-1431.81	 2958.62
     26.2290	 3621.00	 3592.14	-1399.42	 2957.56
     26.2550	 3578.00	 3592.75	-1443.04	 2956.48
     26.2810	 3664.00	 3593.38	-1357.66	 2955.38
     26.3070	 3657.00	 3594.01	-1365.29	 2954.26
     26.3330	 3774.00	 3594.65	-1248.93	 2953.13
     26.3590	 3600.00	 3595.30	-1423.58	 2951.97
     26.3850	 3507.00	 3595.96	-1517.24	 2950.80
     26.4110	 3589.00	 3596.63	-1435.91	 2949.61
     26.4370	 3611.00	 3597.31	-1414.59	 2948.40
     26.4630	 3546.00	 3598.00	-1480.28	 2947.17
     26.4890	 3595.00	 3598.70	-1431.99	 2945.92
     26.5150	 3627.00	 3599.42	-1400.70	 2944.65
     26.5410	 3718.00	 3600.15	-1310.43	 2943.37
     26.5670	 3624.00	 3600.89	-1405.18	 2942.06
     26.5930	 3629.00	 3601.65	-1400.94	 2940.74
     26.6190	 3783.00	 3602.43	-1247.71	 2939.40
     26.6450	 3679.00	 3603.22	-1352.50	 2938.04
     26.6710	 3655.00	 3604.03	-1377.31	 2936.66
     26.6970	 3655.00	 3604.86	-1378.14	 2935.26
     26.7230	 3660.00	 3605.70	-1373.99	 2933.85
     26.7490	 3637.00	 3606.57	-1397.85	 2932.42
     26.7750	 3636.00	 3607.45	-1399.74	 2930.97
     26.8010	 3554.00	 3608.36	-1482.65	 2929.50
     26.8270	 3592.00	 3609.29	-1445.58	 2928.01
     26.8530	 3582.00	 3610.25	-1456.53	 2926.50
     26.8790	 3607.00	 3611.23	-1432.51	 2924.98
     26.9050	 3630.00	 3612.23	-1410.51	 2923.44
     26.9310	 3618.00	 3613.26	-1423.55	 2921.88
     26.9570	 3623.00	 3614.32	-1419.60	 2920.30
     26.9830	 3593.00	 3615.41	-1450.69	 2918.70
     27.0090	 3569.00	 3616.53	-1475.81	 2917.09
     27.0350	 3593.00	 3617.67	-1452.96	 2915.45
     27.0610	 3604.00	 3618.85	-1443.14	 2913.80
     27.0870	 3622.00	 3620.07	-1426.35	 2912.14
     27.1130	 3590.00	 3621.32	-1459.60	 2910.45
     27.1390	 3580.00	 3622.60	-1470.88	 2908.75
     27.1650	 3658.00	 3623.92	-1394.20	 2907.02
     27.1910	 3636.00	 3625.28	-1417.56	 2905.29
     27.2170	 3636.00	 3626.68	-1418.96	 2903.53
     27.2430	 3681.00	 3628.12	-1375.40	 2901.76
     27.2690	 3653.00	 3629.60	-1404.88	 2899.96
     27.2950	 3643.00	 3631.13	-1416.41	 2898.16
     27.3210	 3640.00	 3632.70	-1420.98	 2896.33
     27.3470	 3624.00	 3634.32	-1438.60	 2894.48
     27.3730	 3654.00	 3635.99	-1410.27	 2892.62
     27.3990	 3684.00	 3637.71	-1381.99	 2890.75
     27.4250	 3703.00	 3639.48	-1364.76	 2888.85
     27.4510	 3716.00	 3641.30	-1353.58	 2886.94
     27.4770	 3665.00	 3643.18	-1406.46	 2885.01
     27.5030	 3658.00	 3645.11	-1415.39	 2883.06
     27.5290	 3681.00	 3647.11	-1394.39	 2881.10
     27.5550	 3672.00	 3649.16	-1405.44	 2879.12
     27.5810	 3578.00	 3651.28	-1501.56	 2877.12
     27.6070	 3492.00	 3653.46	-1589.74	 2875.10
     27.6330	 3595.00	 3655.70	-1488.99	 2873.07
     27.6590	 3683.00	 3658.02	-1403.30	 2871.03
     27.6850	 3794.00	 3660.40	-1294.68	 2868.96
     27.7110	 3775.00	 3662.86	-1316.14	 2866.88
     27.7370	 3678.00	 3665.39	-1415.67	 2864.78
     27.7630	 3650.00	 3667.99	-1446.28	 2862.67
     27.7890	 3737.00	 3670.68	-1361.96	 2860.54
     27.8150	 3714.00	 3673.45	-1387.73	 2858.39
     27.8410	 3664.00	 3676.29	-1440.57	 2856.23
     27.8670	 3649.00	 3679.22	-1458.51	 2854.05
     27.8930	 3725.00	 3682.24	-1385.53	 2851.85
     27.9190	 3772.00	 3685.35	-1341.63	 2849.64
     27.9450	 3756.00	 3688.55	-1360.83	 2847.42
     27.9710	 3797.00	 3691.84	-1323.13	 2845.17
     27.9970	 3753.00	 3695.23	-1370.52	 2842.91
     28.0230	 3749.00	 3698.72	-1378.00	 2840.64
     28.0490	 3714.00	 3702.31	-1416.59	 2838.35
     28.0750	 3747.00	 3706.00	-1387.28	 2836.04
     28.1010	 3717.00	 3709.79	-1421.08	 2833.72
     28.1270	 3668.00	 3713.70	-1473.98	 2831.38
     28.1530	 3721.00	 3717.71	-1424.99	 2829.03
     28.1790	 3862.00	 3721.83	-1288.12	 2826.66
     28.2050	 3792.00	 3726.07	-1362.35	 2824.27
     28.2310	 3670.00	 3730.43	-1488.71	 2821.88
     28.2570	 3803.00	 3734.90	-1360.18	 2819.46
     28.2830	 3788.00	 3739.49	-1379.77	 2817.03
     28.3090	 3758.00	 3744.20	-1414.48	 2814.59
     28.3350	 3699.00	 3749.04	-1478.32	 2812.13
     28.3610	 3667.00	 3754.00	-1515.29	 2809.65
     28.3870	 3697.00	 3759.09	-1490.38	 2807.16
     28.4130	 3768.00	 3764.31	-1424.59	 2804.66
     28.4390	 3748.00	 3769.66	-1449.94	 2802.14
     28.4650	 3807.00	 3775.14	-1396.42	 2799.61
     28.4910	 3649.00	 3780.75	-1560.03	 2797.06
     28.5170	 3764.00	 3786.49	-1450.77	 2794.50
     28.5430	 3839.00	 3792.36	-1381.65	 2791.92
     28.5690	 3820.00	 3798.37	-1406.65	 2789.33
     28.5950	 3789.00	 3804.51	-1443.80	 2786.73
     28.6210	 3918.00	 3810.79	-1321.07	 2784.11
     28.6470	 3938.00	 3817.19	-1307.47	 2781.47
     28.6730	 3810.00	 3823.73	-1442.01	 2778.83
     28.6990	 3908.00	 3830.39	-1350.67	 2776.17
     28.7250	 3885.00	 3837.18	-1380.46	 2773.49
     28.7510	 3864.00	 3844.10	-1408.38	 2770.80
     28.7770	 3803.00	 3851.13	-1476.42	 2768.10
     28.8030	 3939.00	 3858.29	-1347.57	 2765.38
     28.8290	 3861.00	 3865.56	-1432.84	 2762.65
     28.8550	 3824.00	 3872.94	-1477.22	 2759.91
     28.8810	 3868.00	 3880.42	-1440.70	 2757.16
     28.9070	 3655.00	 3888.00	-1661.28	 2754.39
     28.9330	 3771.00	 3895.67	-1552.95	 2751.60
     28.9590	 3791.00	 3903.42	-1540.70	 2748.81
     28.9850	 3768.00	 3911.25	-1571.54	 2746.00
     29.0110	 3750.00	 3919.15	-1597.43	 2743.18
     29.0370	 3764.00	 3927.10	-1591.38	 2740.34
     29.0630	 3797.00	 3935.10	-1566.38	 2737.50
     29.0890	 3765.00	 3943.13	-1606.41	 2734.64
     29.1150	 3894.00	 3951.18	-1485.46	 2731.76
     29.1410	 3871.00	 3959.24	-1516.53	 2728.88
     29.1670	 3810.00	 3967.30	-1585.58	 2725.98
     29.1930	 3935.00	 3975.33	-1468.61	 2723.07
     29.2190	 3888.00	 3983.32	-1523.61	 2720.15
     29.2450	 3828.00	 3991.26	-1591.55	 2717.22
     29.2710	 3924.00	 3999.13	-1503.41	 2714.27
     29.2970	 3875.00	 4006.90	-1560.18	 2711.32
     29.3230	 3859.00	 4014.56	-1583.84	 2708.35
     29.3490	 3822.00	 4022.09	-1628.37	 2705.36
     29.3750	 3796.00	 4029.47	-1661.75	 2702.37
     29.4010	 3858.00	 4036.66	-1606.95	 2699.37
     29.4270	 3862.00	 4043.67	-1609.95	 2696.35
     29.4530	 3850.00	 4050.45	-1628.73	 2693.32
     29.4790	 3962.00	 4056.99	-1523.27	 2690.29
     29.5050	 3938.00	 4063.27	-1553.55	 2687.24
     29.5310	 3867.00	 4069.25	-1630.54	 2684.18
     29.5570	 3842.00	 4074.93	-1661.21	 2681.10
     29.5830	 3878.00	 4080.27	-1630.55	 2678.02
     29.6090	 3873.00	 4085.25	-1640.54	 2674.93
     29.6350	 3777.00	 4089.86	-1741.15	 2671.82
     29.6610	 3815.00	 4094.07	-1707.35	 2668.71
     29.6870	 3963.00	 4097.86	-1563.14	 2665.58
     29.7130	 3933.00	 4101.21	-1596.50	 2662.45
     29.7390	 3868.00	 4104.11	-1664.40	 2659.30
     29.7650	 3882.00	 4106.54	-1652.82	 2656.14
     29.7910	 3855.00	 4108.49	-1681.77	 2652.98
     29.8170	 3800.00	 4109.93	-1738.21	 2649.80
     29.8430	 3891.00	 4110.87	-1648.15	 2646.61
     29.8690	 3935.00	 4111.28	-1604.57	 2643.42
     29.8950	 3883.00	 4111.18	-1656.46	 2640.21
     29.9210	 3883.00	 4110.54	-1655.82	 2636.99
     29.9470	 3889.00	 4109.37	-1648.65	 2633.77
     29.9730	 3850.00	 4107.67	-1685.95	 2630.53
     29.9990	 3811.00	 4105.43	-1722.72	 2627.29
     30.0250	 3887.00	 4102.67	-1643.95	 2624.04
     30.0510	 3847.00	 4099.39	-1680.67	 2620.77
     30.0770	 3720.00	 4095.59	-1803.87	 2617.50
     30.1030	 3796.00	 4091.29	-1723.57	 2614.22
     30.1290	 3844.00	 4086.49	-1670.78	 2610.93
     30.1550	 3813.00	 4081.22	-1696.51	 2607.63
     30.1810	 3823.00	 4075.49	-1680.77	 2604.32
     30.2070	 3829.00	 4069.31	-1668.59	 2601.01
     30.2330	 3814.00	 4062.71	-1676.99	 2597.68
     30.2590	 3776.00	 4055.70	-1707.98	 2594.35
     30.2850	 3821.00	 4048.30	-1655.58	 2591.01
     30.3110	 3852.00	 4040.54	-1616.82	 2587.66
     30.3370	 3825.00	 4032.44	-1635.72	 2584.30
     30.3630	 3854.00	 4024.02	-1598.30	 2580.94
     30.3890	 3806.00	 4015.31	-1637.59	 2577.57
     30.4150	 3814.00	 4006.32	-1620.61	 2574.18
     30.4410	 3842.00	 3997.09	-1583.38	 2570.80
     30.4670	 3836.00	 3987.64	-1579.92	 2567.40
     30.4930	 3837.00	 3977.99	-1569.27	 2564.00
     30.5190	 3851.00	 3968.16	-1545.45	 2560.58
     30.5450	 3777.00	 3958.19	-1609.47	 2557.17
     30.5710	 3787.00	 3948.08	-1589.36	 2553.74
     30.5970	 3857.00	 3937.87	-1509.15	 2550.31
     30.6230	 3780.00	 3927.57	-1575.85	 2546.87
     30.6490	 3760.00	 3917.21	-1585.49	 2543.42
     30.6750	 3737.00	 3906.80	-1598.08	 2539.97
     30.7010	 3817.00	 3896.37	-1507.65	 2536.51
     30.7270	 3827.00	 3885.93	-1487.21	 2533.04
     30.7530	 3714.00	 3875.50	-1589.79	 2529.57
     30.7790	 3833.00	 3865.10	-1460.38	 2526.09
     30.8050	 3755.00	 3854.74	-1528.03	 2522.61
     30.8310	 3755.00	 3844.44	-1517.72	 2519.12
     30.8570	 3668.00	 3834.21	-1594.49	 2515.62
     30.8830	 3746.00	 3824.06	-1506.35	 2512.12
     30.9090	 3807.00	 3814.01	-1435.30	 2508.61
     30.9350	 3715.00	 3804.07	-1517.35	 2505.09
     30.9610	 3684.00	 3794.24	-1538.53	 2501.57
     30.9870	 3628.00	 3784.55	-1584.83	 2498.05
     31.0130	 3638.00	 3774.98	-1565.26	 2494.51
     31.0390	 3617.00	 3765.56	-1576.85	 2490.98
     31.0650	 3727.00	 3756.30	-1457.58	 2487.44
     31.0910	 3625.00	 3747.19	-1550.47	 2483.89
     31.1170	 3654.00	 3738.24	-1512.53	 2480.34
     31.1430	 3654.00	 3729.47	-1503.75	 2476.78
     31.1690	 3660.00	 3720.87	-1489.15	 2473.22
     31.1950	 3621.00	 3712.45	-1519.73	 2469.65
     31.2210	 3637.00	 3704.21	-1495.49	 2466.08
     31.2470	 3669.00	 3696.16	-1455.44	 2462.51
     31.2730	 3680.00	 3688.29	-1436.58	 2458.93
     31.2990	 3736.00	 3680.63	-1372.91	 2455.34
     31.3250	 3611.00	 3673.15	-1490.44	 2451.76
     31.3510	 3595.00	 3665.88	-1499.16	 2448.17
     31.3770	 3653.00	 3658.80	-1434.08	 2444.57
     31.4030	 3677.00	 3651.92	-1403.20	 2440.97
     31.4290	 3664.00	 3645.25	-1409.53	 2437.37
     31.4550	 3636.00	 3638.77	-1431.06	 2433.76
     31.4810	 3679.00	 3632.50	-1381.79	 2430.15
     31.5070	 3649.00	 3626.44	-1405.72	 2426.54
     31.5330	 3652.00	 3620.58	-1396.87	 2422.92
     31.5590	 3627.00	 3614.93	-1416.21	 2419.30
     31.5850	 3596.00	 3609.48	-1441.77	 2415.67
     31.6110	 3584.00	 3604.24	-1448.52	 2412.05
     31.6370	 3725.00	 3599.21	-1302.49	 2408.42
     31.6630	 3546.00	 3594.38	-1476.66	 2404.79
     31.6890	 3642.00	 3589.76	-1376.04	 2401.15
     31.7150	 3674.00	 3585.35	-1339.63	 2397.52
     31.7410	 3619.00	 3581.14	-1390.43	 2393.88
     31.7670	 3653.00	 3577.15	-1352.43	 2390.24
     31.7930	 3627.00	 3573.36	-1374.64	 2386.59
     31.8190	 3655.00	 3569.78	-1343.06	 2382.94
     31.8450	 3582.00	 3566.40	-1412.68	 2379.30
     31.8710	 3593.00	 3563.23	-1398.52	 2375.65
     31.8970	 3713.00	 3560.28	-1275.56	 2371.99
     31.9230	 3621.00	 3557.53	-1364.81	 2368.34
     31.9490	 3583.00	 3554.99	-1400.27	 2364.68
     31.9750	 3618.00	 3552.66	-1362.94	 2361.03
     32.0010	 3653.00	 3550.54	-1325.82	 2357.37
     32.0270	 3613.00	 3548.63	-1363.91	 2353.71
     32.0530	 3620.00	 3546.93	-1355.21	 2350.05
     32.0790	 3590.00	 3545.44	-1383.73	 2346.39
     32.1050	 3579.00	 3544.17	-1393.45	 2342.73
     32.1310	 3548.00	 3543.11	-1423.39	 2339.06
     32.1570	 3606.00	 3542.27	-1364.55	 2335.40
     32.1830	 3646.00	 3541.64	-1323.92	 2331.73
     32.2090	 3693.00	 3541.23	-1276.51	 2328.07
     32.2350	 3628.00	 3541.04	-1341.32	 2324.40
     32.2610	 3480.00	 3541.07	-1489.35	 2320.73
     32.2870	 3536.00	 3541.32	-1433.60	 2317.07
     32.3130	 3537.00	 3541.79	-1433.07	 2313.40
     32.3390	 3564.00	 3542.49	-1406.77	 2309.73
     32.3650	 3579.00	 3543.42	-1392.70	 2306.07
     32.3910	 3545.00	 3544.57	-1427.85	 2302.40
     32.4170	 3592.00	 3545.96	-1382.24	 2298.73
     32.4430	 3648.00	 3547.58	-1327.86	 2295.07
     32.4690	 3579.00	 3549.44	-1398.72	 2291.40
     32.4950	 3557.00	 3551.53	-1422.82	 2287.74
     32.5210	 3551.00	 3553.87	-1431.15	 2284.07
     32.5470	 3540.00	 3556.45	-1444.74	 2280.41
     32.5730	 3621.00	 3559.28	-1366.57	 2276.74
     32.5990	 3620.00	 3562.36	-1370.65	 2273.08
     32.6250	 3607.00	 3565.70	-1386.98	 2269.42
     32.6510	 3604.00	 3569.29	-1393.57	 2265.76
     32.6770	 3619.00	 3573.14	-1382.42	 2262.10
     32.7030	 3707.00	 3577.26	-1298.54	 2258.45
     32.7290	 3741.00	 3581.64	-1268.92	 2254.79
     32.7550	 3735.00	 3586.30	-1279.58	 2251.14
     32.7810	 3681.00	 3591.23	-1338.52	 2247.49
     32.8070	 3686.00	 3596.45	-1338.73	 2243.84
     32.8330	 3730.00	 3601.95	-1300.23	 2240.19
     32.8590	 3662.00	 3607.74	-1374.02	 2236.54
     32.8850	 3622.00	 3613.82	-1420.10	 2232.90
     32.9110	 3693.00	 3620.20	-1355.48	 2229.25
     32.9370	 3657.00	 3626.89	-1398.17	 2225.61
     32.9630	 3684.00	 3633.88	-1378.17	 2221.98
     32.9890	 3657.00	 3641.19	-1412.48	 2218.34
     33.0150	 3692.00	 3648.82	-1385.10	 2214.71
     33.0410	 3732.00	 3656.78	-1353.06	 2211.08
     33.0670	 3675.00	 3665.06	-1418.34	 2207.45
     33.0930	 3780.00	 3673.68	-1321.97	 2203.83
     33.1190	 3701.00	 3682.65	-1409.93	 2200.21
     33.1450	 3797.00	 3691.96	-1323.24	 2196.59
     33.1710	 3784.00	 3701.62	-1345.91	 2192.97
     33.1970	 3771.00	 3711.65	-1368.93	 2189.36
     33.2230	 3784.00	 3722.04	-1366.32	 2185.75
     33.2490	 3879.00	 3732.80	-1282.09	 2182.15
     33.2750	 3828.00	 3743.95	-1344.23	 2178.54
     33.3010	 3797.00	 3755.48	-1386.76	 2174.95
     33.3270	 3867.00	 3767.40	-1328.68	 2171.35
     33.3530	 3845.00	 3779.72	-1363.00	 2167.76
     33.3790	 3862.00	 3792.44	-1358.72	 2164.18
     33.4050	 3878.00	 3805.57	-1355.86	 2160.59
     33.4310	 3891.00	 3819.12	-1356.41	 2157.01
     33.4570	 4045.00	 3833.10	-1216.38	 2153.44
     33.4830	 3939.00	 3847.50	-1336.78	 2149.87
     33.5090	 3900.00	 3862.34	-1390.62	 2146.31
     33.5350	 3970.00	 3877.62	-1335.90	 2142.74
     33.5610	 4037.00	 3893.35	-1284.63	 2139.19
     33.5870	 4058.00	 3909.52	-1279.81	 2135.64
     33.6130	 4017.00	 3926.16	-1337.44	 2132.09
     33.6390	 4022.00	 3943.26	-1349.54	 2128.55
     33.6650	 4167.00	 3960.83	-1222.11	 2125.01
     33.6910	 4078.00	 3978.87	-1329.15	 2121.48
     33.7170	 4117.00	 3997.38	-1308.66	 2117.95
     33.7430	 4090.00	 4016.37	-1354.65	 2114.43
     33.7690	 4103.00	 4035.84	-1361.13	 2110.91
     33.7950	 4116.00	 4055.80	-1368.08	 2107.40
     33.8210	 4241.00	 4076.24	-1263.52	 2103.89
     33.8470	 4259.00	 4097.17	-1266.45	 2100.39
     33.8730	 4191.00	 4118.58	-1355.86	 2096.90
     33.8990	 4264.00	 4140.47	-1304.75	 2093.41
     33.9250	 4260.00	 4162.84	-1331.13	 2089.93
     33.9510	 4315.00	 4185.70	-1298.98	 2086.45
     33.9770	 4368.00	 4209.03	-1269.31	 2082.98
     34.0030	 4418.00	 4232.82	-1243.11	 2079.51
     34.0290	 4371.00	 4257.08	-1314.36	 2076.06
     34.0550	 4408.00	 4281.79	-1302.07	 2072.60
     34.0810	 4405.00	 4306.94	-1330.22	 2069.16
     34.1070	 4372.00	 4332.53	-1388.81	 2065.72
     34.1330	 4443.00	 4358.53	-1343.81	 2062.28
     34.1590	 4640.00	 4384.93	-1173.21	 2058.86
     34.1850	 4573.00	 4411.72	-1267.00	 2055.44
     34.2110	 4549.00	 4438.87	-1318.15	 2052.02
     34.2370	 4615.00	 4466.36	-1279.64	 2048.62
     34.2630	 4592.00	 4494.17	-1330.45	 2045.22
     34.2890	 4657.00	 4522.28	-1293.56	 2041.83
     34.3150	 4710.00	 4550.64	-1268.92	 2038.44
     34.3410	 4698.00	 4579.23	-1309.51	 2035.06
     34.3670	 4725.00	 4608.02	-1311.30	 2031.69
     34.3930	 4772.00	 4636.96	-1293.25	 2028.33
     34.4190	 4813.00	 4666.02	-1281.30	 2024.97
     34.4450	 4945.00	 4695.16	-1178.44	 2021.62
     34.4710	 4923.00	 4724.32	-1229.60	 2018.28
     34.4970	 4916.00	 4753.46	-1265.75	 2014.95
     34.5230	 4913.00	 4782.53	-1297.81	 2011.62
     34.5490	 4891.00	 4811.47	-1348.75	 2008.31
     34.5750	 4885.00	 4840.22	-1383.50	 2005.00
     34.6010	 5068.00	 4868.72	-1229.01	 2001.69
     34.6270	 5020.00	 4896.92	-1305.20	 1998.40
     34.6530	 5092.00	 4924.73	-1261.02	 1995.11
     34.6790	 5008.00	 4952.11	-1372.39	 1991.84
     34.7050	 5061.00	 4978.97	-1346.25	 1988.57
     34.7310	 5290.00	 5005.24	-1143.52	 1985.31
     34.7570	 5278.00	 5030.85	-1181.14	 1982.05
     34.7830	 5249.00	 5055.74	-1235.02	 1978.81
     34.8090	 5182.00	 5079.82	-1326.10	 1975.57
     34.8350	 5219.00	 5103.02	-1312.30	 1972.35
     34.8610	 5298.00	 5125.26	-1255.54	 1969.13
     34.8870	 5338.00	 5146.47	-1236.76	 1965.92
     34.9130	 5258.00	 5166.59	-1336.87	 1962.72
     34.9390	 5237.00	 5185.52	-1376.80	 1959.53
     34.9650	 5364.00	 5203.21	-1267.49	 1956.35
     34.9910	 5475.00	 5219.60	-1172.88	 1953.17
     35.0170	 5505.00	 5234.60	-1157.89	 1950.01
     35.0430	 5457.00	 5248.18	-1219.46	 1946.86
     35.0690	 5367.00	 5260.27	-1321.55	 1943.71
     35.0950	 5271.00	 5270.81	-1428.10	 1940.57
     35.1210	 5332.00	 5279.77	-1376.06	 1937.45
     35.1470	 5440.00	 5287.11	-1275.39	 1934.33
     35.1730	 5420.00	 5292.78	-1301.07	 1931.22
     35.1990	 5438.00	 5296.77	-1287.05	 1928.12
     35.2250	 5453.00	 5299.05	-1274.33	 1925.04
     35.2510	 5435.00	 5299.60	-1292.88	 1921.96
     35.2770	 5438.00	 5298.42	-1288.70	 1918.89
     35.3030	 5353.00	 5295.50	-1370.79	 1915.83
     35.3290	 5326.00	 5290.86	-1393.15	 1912.78
     35.3550	 5393.00	 5284.51	-1319.79	 1909.74
     35.3810	 5377.00	 5276.46	-1327.74	 1906.71
     35.4070	 5376.00	 5266.74	-1319.02	 1903.70
     35.4330	 5350.00	 5255.38	-1333.67	 1900.69
     35.4590	 5326.00	 5242.43	-1344.72	 1897.69
     35.4850	 5340.00	 5227.93	-1316.21	 1894.70
     35.5110	 5276.00	 5211.93	-1364.21	 1891.72
     35.5370	 5243.00	 5194.49	-1379.77	 1888.76
     35.5630	 5270.00	 5175.65	-1333.93	 1885.80
     35.5890	 5278.00	 5155.50	-1305.78	 1882.86
     35.6150	 5220.00	 5134.09	-1342.37	 1879.92
     35.6410	 5216.00	 5111.50	-1323.78	 1877.00
     35.6670	 5132.00	 5087.79	-1384.07	 1874.08
     35.6930	 5033.00	 5063.05	-1458.33	 1871.18
     35.7190	 5050.00	 5037.34	-1415.63	 1868.29
     35.7450	 4947.00	 5010.76	-1492.04	 1865.41
     35.7710	 4883.00	 4983.37	-1528.65	 1862.54
     35.7970	 4825.00	 4955.25	-1558.53	 1859.68
     35.8230	 4769.00	 4926.48	-1585.76	 1856.83
     35.8490	 4762.00	 4897.14	-1563.43	 1854.00
     35.8750	 4752.00	 4867.31	-1543.59	 1851.17
     35.9010	 4751.00	 4837.06	-1514.34	 1848.36
     35.9270	 4718.00	 4806.45	-1516.74	 1845.55
     35.9530	 4677.00	 4775.59	-1526.87	 1842.76
     35.9790	 4564.00	 4744.51	-1608.79	 1839.98
     36.0050	 4581.00	 4713.30	-1560.58	 1837.21
     36.0310	 4595.00	 4682.02	-1515.30	 1834.46
     36.0570	 4498.00	 4650.75	-1581.03	 1831.71
     36.0830	 4443.00	 4619.53	-1604.81	 1828.98
     36.1090	 4544.00	 4588.43	-1472.72	 1826.26
     36.1350	 4551.00	 4557.53	-1434.81	 1823.55
     36.1610	 4400.00	 4526.87	-1555.15	 1820.85
     36.1870	 4360.00	 4496.51	-1564.80	 1818.16
     36.2130	 4495.00	 4466.52	-1399.80	 1815.49
     36.2390	 4357.00	 4436.95	-1508.24	 1812.82
     36.2650	 4254.00	 4407.87	-1582.15	 1810.17
     36.2910	 4249.00	 4379.33	-1558.61	 1807.53
     36.3170	 4209.00	 4351.40	-1570.68	 1804.91
     36.3430	 4237.00	 4324.14	-1515.42	 1802.29
     36.3690	 4271.00	 4297.63	-1454.91	 1799.69
     36.3950	 4321.00	 4271.92	-1379.20	 1797.10
     36.4210	 4243.00	 4247.11	-1432.39	 1794.52
     36.4470	 4120.00	 4223.26	-1531.55	 1791.96
     36.4730	 4215.00	 4200.49	-1413.77	 1789.40
     36.4990	 4232.00	 4178.86	-1375.14	 1786.86
     36.5250	 4244.00	 4158.48	-1342.76	 1784.33
     36.5510	 4086.00	 4139.45	-1481.74	 1781.82
     36.5770	 4177.00	 4121.96	-1373.24	 1779.31
     36.6030	 4114.00	 4105.95	-1420.23	 1776.82
     36.6290	 4118.00	 4091.57	-1401.86	 1774.34
     36.6550	 4136.00	 4078.90	-1371.18	 1771.88
     36.6810	 4027.00	 4067.95	-1469.23	 1769.43
     36.7070	 4051.00	 4058.68	-1435.96	 1766.98
     36.7330	 3964.00	 4050.98	-1515.26	 1764.56
     36.7590	 4170.00	 4044.51	-1302.80	 1762.14
     36.7850	 4131.00	 4038.88	-1336.17	 1759.74
     36.8110	 4108.00	 4033.48	-1353.76	 1757.35
     36.8370	 4006.00	 4027.51	-1449.79	 1754.97
     36.8630	 3855.00	 4020.04	-1593.32	 1752.61
     36.8890	 3925.00	 4010.07	-1513.35	 1750.26
     36.9150	 3967.00	 3996.68	-1457.96	 1747.92
     36.9410	 3811.00	 3979.14	-1596.42	 1745.59
     36.9670	 3863.00	 3957.03	-1522.31	 1743.28
     36.9930	 3948.00	 3930.29	-1410.57	 1740.98
     37.0190	 3843.00	 3899.24	-1484.52	 1738.70
     37.0450	 3770.00	 3864.49	-1522.77	 1736.43
     37.0710	 3729.00	 3826.87	-1526.15	 1734.17
     37.0970	 3713.00	 3787.28	-1502.57	 1731.92
     37.1230	 3653.00	 3746.63	-1521.92	 1729.69
     37.1490	 3704.00	 3705.74	-1430.02	 1727.47
     37.1750	 3674.00	 3665.28	-1419.56	 1725.26
     37.2010	 3571.00	 3625.74	-1483.02	 1723.07
     37.2270	 3531.00	 3587.48	-1484.77	 1720.89
     37.2530	 3453.00	 3550.71	-1526.00	 1718.72
     37.2790	 3450.00	 3515.54	-1493.82	 1716.57
     37.3050	 3465.00	 3481.97	-1445.25	 1714.43
     37.3310	 3473.00	 3449.98	-1405.26	 1712.30
     37.3570	 3433.00	 3419.49	-1414.78	 1710.19
     37.3830	 3299.00	 3390.43	-1519.71	 1708.09
     37.4090	 3316.00	 3362.69	-1474.97	 1706.00
     37.4350	 3288.00	 3336.17	-1476.45	 1703.93
     37.4610	 3303.00	 3310.78	-1436.06	 1701.87
     37.4870	 3273.00	 3286.43	-1441.72	 1699.82
     37.5130	 3211.00	 3263.04	-1480.32	 1697.79
     37.5390	 3174.00	 3240.53	-1494.81	 1695.77
     37.5650	 3155.00	 3218.83	-1492.11	 1693.77
     37.5910	 3102.00	 3197.88	-1524.17	 1691.78
     37.6170	 3059.00	 3177.63	-1546.91	 1689.80
     37.6430	 3114.00	 3158.02	-1472.31	 1687.84
     37.6690	 3088.00	 3139.02	-1479.30	 1685.89
     37.6950	 3025.00	 3120.58	-1523.86	 1683.95
     37.7210	 3011.00	 3102.67	-1519.95	 1682.03
     37.7470	 3031.00	 3085.25	-1482.53	 1680.12
     37.7730	 3050.00	 3068.31	-1446.59	 1678.22
     37.7990	 2981.00	 3051.81	-1499.09	 1676.34
     37.8250	 2977.00	 3035.74	-1487.02	 1674.47
     37.8510	 3033.00	 3020.07	-1415.35	 1672.62
     37.8770	 3002.00	 3004.78	-1431.07	 1670.78
     37.9030	 2969.00	 2989.87	-1449.15	 1668.95
     37.9290	 2897.00	 2975.31	-1506.59	 1667.14
     37.9550	 2859.00	 2961.09	-1530.37	 1665.34
     37.9810	 2921.00	 2947.20	-1454.49	 1663.55
     38.0070	 2882.00	 2933.63	-1479.92	 1661.78
     38.0330	 2847.00	 2920.37	-1501.65	 1660.02
     38.0590	 2924.00	 2907.40	-1411.69	 1658.28
     38.0850	 2925.00	 2894.73	-1398.01	 1656.55
     38.1110	 2838.00	 2882.33	-1472.61	 1654.84
     38.1370	 2863.00	 2870.20	-1435.48	 1653.13
     38.1630	 2795.00	 2858.34	-1491.62	 1651.45
     38.1890	 2856.00	 2846.73	-1419.02	 1649.77
     38.2150	 2863.00	 2835.38	-1400.66	 1648.11
     38.2410	 2890.00	 2824.27	-1362.55	 1646.46
     38.2670	 2936.00	 2813.39	-1305.68	 1644.83
     38.2930	 2890.00	 2802.75	-1341.03	 1643.21
     38.3190	 2808.00	 2792.34	-1412.62	 1641.61
     38.3450	 2847.00	 2782.14	-1363.42	 1640.02
     38.3710	 2879.00	 2772.16	-1321.45	 1638.44
     38.3970	 2791.00	 2762.40	-1399.68	 1636.88
     38.4230	 2751.00	 2752.84	-1430.12	 1635.33
     38.4490	 2753.00	 2743.48	-1418.76	 1633.79
     38.4750	 2772.00	 2734.31	-1390.60	 1632.27
     38.5010	 2773.00	 2725.35	-1380.63	 1630.77
     38.5270	 2806.00	 2716.57	-1338.85	 1629.27
     38.5530	 2780.00	 2707.97	-1356.26	 1627.79
     38.5790	 2788.00	 2699.56	-1339.84	 1626.33
     38.6050	 2751.00	 2691.33	-1368.61	 1624.88
     38.6310	 2740.00	 2683.27	-1371.55	 1623.44
     38.6570	 2813.00	 2675.38	-1290.66	 1622.01
     38.6830	 2688.00	 2667.66	-1407.94	 1620.60
     38.7090	 2676.00	 2660.10	-1412.38	 1619.21
     38.7350	 2710.00	 2652.71	-1370.99	 1617.83
     38.7610	 2779.00	 2645.47	-1294.75	 1616.46
     38.7870	 2640.00	 2638.39	-1426.67	 1615.10
     38.8130	 2693.00	 2631.46	-1366.74	 1613.76
     38.8390	 2667.00	 2624.68	-1385.97	 1612.44
     38.8650	 2663.00	 2618.05	-1383.34	 1611.12
     38.8910	 2722.00	 2611.57	-1317.85	 1609.82
     38.9170	 2720.00	 2605.23	-1313.51	 1608.54
     38.9430	 2695.00	 2599.02	-1332.31	 1607.27
     38.9690	 2605.00	 2592.96	-1416.24	 1606.01
     38.9950	 2710.00	 2587.04	-1305.32	 1604.77
     39.0210	 2687.00	 2581.24	-1322.52	 1603.54
     39.0470	 2682.00	 2575.58	-1321.86	 1602.32
     39.0730	 2569.00	 2570.05	-1429.33	 1601.12
     39.0990	 2651.00	 2564.64	-1341.93	 1599.93
     39.1250	 2628.00	 2559.37	-1359.65	 1598.75
     39.1510	 2633.00	 2554.21	-1349.50	 1597.59
     39.1770	 2593.00	 2549.18	-1384.47	 1596.45
     39.2030	 2569.00	 2544.28	-1403.56	 1595.31
     39.2290	 2641.00	 2539.49	-1326.77	 1594.19
     39.2550	 2698.00	 2534.81	-1265.10	 1593.08
     39.2810	 2693.00	 2530.26	-1265.54	 1591.99
     39.3070	 2719.00	 2525.82	-1235.11	 1590.91
     39.3330	 2597.00	 2521.50	-1352.78	 1589.85
     39.3590	 2601.00	 2517.29	-1344.57	 1588.79
     39.3850	 2572.00	 2513.19	-1369.47	 1587.76
     39.4110	 2515.00	 2509.20	-1422.48	 1586.73
     39.4370	 2596.00	 2505.32	-1337.60	 1585.72
     39.4630	 2590.00	 2501.55	-1339.83	 1584.72
     39.4890	 2624.00	 2497.88	-1302.17	 1583.74
     39.5150	 2585.00	 2494.33	-1337.61	 1582.77
     39.5410	 2493.00	 2490.88	-1426.16	 1581.81
     39.5670	 2526.00	 2487.53	-1389.82	 1580.87
     39.5930	 2568.00	 2484.29	-1344.57	 1579.93
     39.6190	 2527.00	 2481.15	-1382.44	 1579.02
     39.6450	 2603.00	 2478.12	-1303.40	 1578.11
     39.6710	 2613.00	 2475.19	-1290.47	 1577.22
     39.6970	 2516.00	 2472.36	-1384.64	 1576.35
     39.7230	 2562.00	 2469.63	-1335.92	 1575.48
     39.7490	 2530.00	 2467.01	-1365.29	 1574.63
     39.7750	 2642.00	 2464.48	-1250.77	 1573.79
     39.8010	 2592.00	 2462.06	-1298.34	 1572.97
     39.8270	 2514.00	 2459.73	-1374.02	 1572.16
     39.8530	 2546.00	 2457.51	-1339.79	 1571.36
     39.8790	 2522.00	 2455.39	-1361.67	 1570.58
     39.9050	 2475.00	 2453.36	-1406.65	 1569.80
     39.9310	 2511.00	 2451.44	-1368.72	 1569.05
     39.9570	 2531.00	 2449.62	-1346.90	 1568.30
     39.9830	 2549.00	 2447.90	-1327.18	 1567.57
     40.0090	 2515.00	 2446.27	-1359.56	 1566.85
     40.0350	 2531.00	 2444.75	-1342.04	 1566.14
     40.0610	 2576.00	 2443.33	-1295.61	 1565.45
     40.0870	 2541.00	 2442.01	-1329.30	 1564.77
     40.1130	 2540.00	 2440.79	-1329.08	 1564.10
     40.1390	 2482.00	 2439.68	-1385.96	 1563.44
     40.1650	 2456.00	 2438.67	-1410.95	 1562.80
     40.1910	 2469.00	 2437.76	-1397.04	 1562.17
     40.2170	 2516.00	 2436.95	-1349.23	 1561.55
     40.2430	 2536.00	 2436.25	-1328.53	 1560.95
     40.2690	 2526.00	 2435.65	-1337.93	 1560.36
     40.2950	 2514.00	 2435.16	-1349.44	 1559.78
     40.3210	 2504.00	 2434.78	-1359.06	 1559.21
     40.3470	 2531.00	 2434.50	-1331.79	 1558.66
     40.3730	 2528.00	 2434.34	-1334.62	 1558.12
     40.3990	 2497.00	 2434.28	-1365.57	 1557.59
     40.4250	 2466.00	 2434.34	-1396.62	 1557.07
     40.4510	 2485.00	 2434.51	-1377.79	 1556.57
     40.4770	 2512.00	 2434.79	-1351.08	 1556.08
     40.5030	 2491.00	 2435.19	-1372.48	 1555.60
     40.5290	 2508.00	 2435.71	-1355.99	 1555.13
     40.5550	 2514.00	 2436.35	-1350.63	 1554.68
     40.5810	 2485.00	 2437.10	-1380.39	 1554.23
     40.6070	 2463.00	 2437.98	-1403.27	 1553.80
     40.6330	 2442.00	 2438.99	-1425.27	 1553.38
     40.6590	 2422.00	 2440.12	-1446.40	 1552.98
     40.6850	 2432.00	 2441.38	-1437.66	 1552.58
     40.7110	 2430.00	 2442.77	-1441.05	 1552.20
     40.7370	 2458.00	 2444.29	-1414.58	 1551.83
     40.7630	 2480.00	 2445.95	-1394.24	 1551.47
     40.7890	 2537.00	 2447.75	-1339.04	 1551.13
     40.8150	 2483.00	 2449.70	-1394.98	 1550.79
     40.8410	 2457.00	 2451.78	-1423.07	 1550.47
     40.8670	 2455.00	 2454.02	-1427.30	 1550.16
     40.8930	 2514.00	 2456.40	-1370.69	 1549.86
     40.9190	 2438.00	 2458.94	-1449.23	 1549.57
     40.9450	 2475.00	 2461.64	-1414.93	 1549.29
     40.9710	 2540.00	 2464.50	-1352.79	 1549.03
     40.9970	 2497.00	 2467.53	-1398.81	 1548.78
     41.0230	 2479.00	 2470.73	-1420.01	 1548.53
     41.0490	 2451.00	 2474.10	-1451.38	 1548.30
     41.0750	 2518.00	 2477.65	-1387.94	 1548.09
     41.1010	 2539.00	 2481.39	-1370.67	 1547.88
     41.1270	 2546.00	 2485.32	-1367.60	 1547.68
     41.1530	 2565.00	 2489.44	-1352.72	 1547.50
     41.1790	 2468.00	 2493.76	-1454.05	 1547.32
     41.2050	 2460.00	 2498.30	-1466.58	 1547.16
     41.2310	 2482.00	 2503.04	-1449.33	 1547.01
     41.2570	 2555.00	 2508.01	-1381.29	 1546.87
     41.2830	 2455.00	 2513.21	-1486.49	 1546.74
     41.3090	 2480.00	 2518.64	-1466.92	 1546.62
     41.3350	 2476.00	 2524.32	-1476.60	 1546.51
     41.3610	 2487.00	 2530.25	-1471.53	 1546.42
     41.3870	 2452.00	 2536.44	-1512.73	 1546.33
     41.4130	 2519.00	 2542.91	-1452.19	 1546.25
     41.4390	 2548.00	 2549.66	-1429.94	 1546.19
     41.4650	 2530.00	 2556.71	-1454.99	 1546.14
     41.4910	 2488.00	 2564.07	-1504.35	 1546.09
     41.5170	 2457.00	 2571.75	-1543.03	 1546.06
     41.5430	 2513.00	 2579.76	-1495.05	 1546.04
     41.5690	 2400.00	 2588.13	-1616.42	 1546.02
     41.5950	 2451.00	 2596.87	-1574.15	 1546.02
     41.6210	 2465.00	 2606.00	-1569.28	 1546.03
     41.6470	 2494.00	 2615.53	-1549.81	 1546.05
     41.6730	 2460.00	 2625.49	-1593.78	 1546.08
     41.6990	 2452.00	 2635.91	-1612.20	 1546.12
     41.7250	 2570.00	 2646.81	-1505.09	 1546.17
     41.7510	 2447.00	 2658.21	-1639.50	 1546.23
     41.7770	 2574.00	 2670.16	-1524.44	 1546.30
     41.8030	 2485.00	 2682.68	-1625.96	 1546.38
     41.8290	 2531.00	 2695.82	-1593.10	 1546.46
     41.8550	 2467.00	 2709.60	-1670.88	 1546.56
     41.8810	 2435.00	 2724.09	-1717.38	 1546.67
     41.9070	 2601.00	 2739.34	-1566.63	 1546.79
     41.9330	 2419.00	 2755.41	-1764.69	 1546.92
     41.9590	 2572.00	 2772.35	-1628.63	 1547.06
     41.9850	 2559.00	 2790.25	-1659.53	 1547.20
     42.0110	 2527.00	 2809.18	-1710.47	 1547.36
     42.0370	 2505.00	 2829.25	-1752.53	 1547.53
     42.0630	 2538.00	 2850.55	-1740.83	 1547.70
     42.0890	 2603.00	 2873.21	-1698.50	 1547.89
     42.1150	 2676.00	 2897.36	-1649.65	 1548.08
     42.1410	 2744.00	 2923.16	-1607.45	 1548.28
     42.1670	 2748.00	 2950.78	-1631.06	 1548.49
     42.1930	 2865.00	 2980.42	-1543.71	 1548.71
     42.2190	 2908.00	 3012.31	-1532.59	 1548.94
     42.2450	 3024.00	 3046.69	-1450.98	 1549.18
     42.2710	 3142.00	 3083.88	-1370.17	 1549.43
     42.2970	 3104.00	 3124.20	-1448.49	 1549.69
     42.3230	 3162.00	 3168.03	-1434.31	 1549.95
     42.3490	 3302.00	 3215.78	-1342.06	 1550.23
     42.3750	 3443.00	 3267.95	-1253.23	 1550.51
     42.4010	 3526.00	 3325.07	-1227.35	 1550.80
     42.4270	 3573.00	 3387.74	-1243.02	 1551.10
     42.4530	 3679.00	 3456.61	-1205.89	 1551.41
     42.4790	 3766.00	 3532.42	-1194.70	 1551.72
     42.5050	 3882.00	 3615.93	-1162.21	 1552.05
     42.5310	 4022.00	 3707.94	-1114.22	 1552.38
     42.5570	 4072.00	 3809.26	-1165.54	 1552.72
     42.5830	 4310.00	 3920.67	-1038.95	 1553.07
     42.6090	 4442.00	 4042.79	-1029.07	 1553.43
     42.6350	 4507.00	 4176.02	-1097.30	 1553.80
     42.6610	 4663.00	 4320.33	-1085.61	 1554.17
     42.6870	 4771.00	 4475.18	-1132.47	 1554.55
     42.7130	 4800.00	 4639.10	-1267.38	 1554.94
     42.7390	 4879.00	 4809.50	-1358.78	 1555.34
     42.7650	 4979.00	 4982.42	-1431.70	 1555.74
     42.7910	 5100.00	 5152.50	-1480.79	 1556.15
     42.8170	 5142.00	 5312.94	-1599.22	 1556.57
     42.8430	 5175.00	 5455.98	-1709.26	 1557.00
     42.8690	 5191.00	 5573.67	-1810.95	 1557.43
     42.8950	 5246.00	 5658.91	-1841.19	 1557.87
     42.9210	 5265.00	 5706.33	-1869.61	 1558.32
     42.9470	 5278.00	 5713.13	-1863.41	 1558.78
     42.9730	 5296.00	 5679.31	-1811.59	 1559.24
     42.9990	 5250.00	 5607.55	-1785.83	 1559.71
     43.0250	 5201.00	 5502.64	-1729.92	 1560.19
     43.0510	 5069.00	 5370.87	-1730.16	 1560.67
     43.0770	 5002.00	 5219.32	-1645.61	 1561.16
     43.1030	 5052.00	 5055.03	-1431.31	 1561.66
     43.1290	 4971.00	 4884.62	-1341.90	 1562.17
     43.1550	 4785.00	 4713.72	-1357.01	 1562.68
     43.1810	 4697.00	 4546.82	-1278.10	 1563.19
     43.2070	 4623.00	 4387.06	-1192.34	 1563.72
     43.2330	 4509.00	 4236.56	-1155.84	 1564.25
     43.2590	 4389.00	 4096.47	-1135.76	 1564.79
     43.2850	 4168.00	 3967.24	-1227.53	 1565.33
     43.3110	 4124.00	 3848.75	-1153.03	 1565.88
     43.3370	 4008.00	 3740.59	-1160.87	 1566.44
     43.3630	 3840.00	 3642.13	-1230.41	 1567.00
     43.3890	 3819.00	 3552.61	-1161.90	 1567.57
     43.4150	 3646.00	 3471.27	-1253.56	 1568.14
     43.4410	 3454.00	 3397.34	-1371.62	 1568.72
     43.4670	 3389.00	 3330.09	-1369.37	 1569.30
     43.4930	 3335.00	 3268.81	-1362.09	 1569.90
     43.5190	 3228.00	 3212.89	-1413.17	 1570.49
     43.5450	 3143.00	 3161.75	-1447.03	 1571.10
     43.5710	 3010.00	 3114.89	-1533.17	 1571.70
     43.5970	 2969.00	 3071.84	-1531.12	 1572.32
     43.6230	 2894.00	 3032.19	-1566.47	 1572.94
     43.6490	 2891.00	 2995.60	-1532.88	 1573.56
     43.6750	 2732.00	 2961.73	-1658.02	 1574.19
     43.7010	 2652.00	 2930.32	-1706.60	 1574.83
     43.7270	 2618.00	 2901.11	-1711.39	 1575.47
     43.7530	 2618.00	 2873.88	-1684.16	 1576.11
     43.7790	 2619.00	 2848.45	-1657.73	 1576.76
     43.8050	 2572.00	 2824.63	-1680.92	 1577.42
     43.8310	 2484.00	 2802.30	-1746.58	 1578.08
     43.8570	 2586.00	 2781.30	-1623.58	 1578.75
     43.8830	 2513.00	 2761.53	-1676.82	 1579.41
     43.9090	 2531.00	 2742.88	-1640.17	 1580.09
     43.9350	 2435.00	 2725.26	-1718.55	 1580.77
     43.9610	 2433.00	 2708.59	-1703.87	 1581.45
     43.9870	 2484.00	 2692.79	-1637.07	 1582.14
     44.0130	 2425.00	 2677.80	-1681.08	 1582.83
     44.0390	 2466.00	 2663.55	-1625.84	 1583.53
     44.0650	 2469.00	 2650.00	-1609.29	 1584.23
     44.0910	 2520.00	 2637.11	-1545.39	 1584.93
     44.1170	 2523.00	 2624.81	-1530.09	 1585.64
     44.1430	 2499.00	 2613.08	-1542.37	 1586.36
     44.1690	 2426.00	 2601.89	-1604.17	 1587.07
     44.1950	 2485.00	 2591.19	-1534.47	 1587.80
     44.2210	 2490.00	 2580.96	-1519.24	 1588.52
     44.2470	 2454.00	 2571.17	-1545.45	 1589.25
     44.2730	 2558.00	 2561.80	-1432.08	 1589.98
     44.2990	 2532.00	 2552.83	-1449.11	 1590.72
     44.3250	 2427.00	 2544.23	-1545.51	 1591.46
     44.3510	 2473.00	 2535.98	-1491.26	 1592.20
     44.3770	 2443.00	 2528.07	-1513.35	 1592.95
     44.4030	 2512.00	 2520.48	-1436.76	 1593.69
     44.4290	 2449.00	 2513.19	-1492.47	 1594.45
     44.4550	 2423.00	 2506.20	-1511.48	 1595.20
     44.4810	 2421.00	 2499.48	-1506.76	 1595.96
     44.5070	 2486.00	 2493.03	-1435.31	 1596.72
     44.5330	 2452.00	 2486.83	-1463.11	 1597.49
     44.5590	 2382.00	 2480.88	-1527.16	 1598.26
     44.5850	 2416.00	 2475.16	-1487.44	 1599.03
     44.6110	 2389.00	 2469.66	-1508.95	 1599.80
     44.6370	 2374.00	 2464.38	-1518.66	 1600.58
     44.6630	 2388.00	 2459.31	-1499.59	 1601.36
     44.6890	 2430.00	 2454.43	-1452.72	 1602.14
     44.7150	 2428.00	 2449.75	-1450.03	 1602.92
     44.7410	 2492.00	 2445.25	-1381.53	 1603.71
     44.7670	 2445.00	 2440.93	-1424.21	 1604.50
     44.7930	 2452.00	 2436.78	-1413.07	 1605.29
     44.8190	 2464.00	 2432.80	-1397.08	 1606.08
     44.8450	 2424.00	 2428.98	-1433.26	 1606.88
     44.8710	 2468.00	 2425.31	-1385.60	 1607.67
     44.8970	 2462.00	 2421.80	-1388.08	 1608.47
     44.9230	 2509.00	 2418.43	-1337.71	 1609.27
     44.9490	 2397.00	 2415.20	-1446.48	 1610.08
     44.9750	 2354.00	 2412.11	-1486.39	 1610.88
     45.0010	 2352.00	 2409.15	-1485.44	 1611.69
     45.0270	 2388.00	 2406.32	-1446.61	 1612.50
     45.0530	 2450.00	 2403.62	-1381.90	 1613.31
     45.0790	 2383.00	 2401.04	-1446.32	 1614.12
     45.1050	 2361.00	 2398.57	-1465.86	 1614.93
     45.1310	 2394.00	 2396.23	-1430.51	 1615.74
     45.1570	 2393.00	 2393.99	-1429.27	 1616.56
     45.1830	 2390.00	 2391.86	-1430.15	 1617.38
     45.2090	 2400.00	 2389.84	-1418.13	 1618.19
     45.2350	 2418.00	 2387.93	-1398.21	 1619.01
     45.2610	 2383.00	 2386.11	-1431.39	 1619.83
     45.2870	 2386.00	 2384.39	-1426.67	 1620.65
     45.3130	 2438.00	 2382.77	-1373.05	 1621.48
     45.3390	 2389.00	 2381.24	-1420.52	 1622.30
     45.3650	 2387.00	 2379.80	-1421.08	 1623.12
     45.3910	 2437.00	 2378.45	-1369.74	 1623.95
     45.4170	 2392.00	 2377.19	-1413.48	 1624.77
     45.4430	 2362.00	 2376.02	-1442.30	 1625.59
     45.4690	 2357.00	 2374.92	-1446.20	 1626.42
     45.4950	 2328.00	 2373.91	-1474.19	 1627.25
     45.5210	 2340.00	 2372.97	-1461.26	 1628.07
     45.5470	 2340.00	 2372.11	-1460.40	 1628.90
     45.5730	 2357.00	 2371.33	-1442.61	 1629.73
     45.5990	 2365.00	 2370.62	-1433.90	 1630.55
     45.6250	 2369.00	 2369.98	-1429.26	 1631.38
     45.6510	 2385.00	 2369.41	-1412.69	 1632.21
     45.6770	 2345.00	 2368.91	-1452.19	 1633.03
     45.7030	 2383.00	 2368.47	-1413.75	 1633.86
     45.7290	 2398.00	 2368.09	-1398.38	 1634.69
     45.7550	 2385.00	 2367.78	-1411.07	 1635.51
     45.7810	 2380.00	 2367.53	-1415.81	 1636.34
     45.8070	 2304.00	 2367.33	-1491.62	 1637.17
     45.8330	 2359.00	 2367.20	-1436.48	 1637.99
     45.8590	 2362.00	 2367.11	-1433.39	 1638.82
     45.8850	 2338.00	 2367.08	-1457.36	 1639.64
     45.9110	 2385.00	 2367.09	-1410.37	 1640.46
     45.9370	 2410.00	 2367.16	-1385.44	 1641.29
     45.9630	 2430.00	 2367.26	-1365.55	 1642.11
     45.9890	 2421.00	 2367.42	-1374.70	 1642.93
     46.0150	 2418.00	 2367.61	-1377.89	 1643.75
     46.0410	 2424.00	 2367.84	-1372.12	 1644.57
     46.0670	 2334.00	 2368.11	-1462.39	 1645.39
     46.0930	 2360.00	 2368.41	-1436.69	 1646.20
     46.1190	 2377.00	 2368.74	-1420.02	 1647.02
     46.1450	 2290.00	 2369.10	-1507.38	 1647.84
     46.1710	 2353.00	 2369.48	-1444.77	 1648.65
     46.1970	 2415.00	 2369.89	-1383.17	 1649.46
     46.2230	 2438.00	 2370.32	-1360.60	 1650.27
     46.2490	 2333.00	 2370.76	-1466.04	 1651.08
     46.2750	 2294.00	 2371.22	-1505.50	 1651.89
     46.3010	 2365.00	 2371.69	-1434.97	 1652.70
     46.3270	 2398.00	 2372.17	-1402.45	 1653.50
     46.3530	 2417.00	 2372.65	-1383.93	 1654.30
     46.3790	 2371.00	 2373.14	-1430.42	 1655.10
     46.4050	 2346.00	 2373.62	-1455.90	 1655.90
     46.4310	 2350.00	 2374.10	-1452.38	 1656.70
     46.4570	 2388.00	 2374.57	-1414.85	 1657.50
     46.4830	 2419.00	 2375.03	-1384.31	 1658.29
     46.5090	 2436.00	 2375.47	-1367.75	 1659.08
     46.5350	 2340.00	 2375.90	-1464.18	 1659.87
     46.5610	 2370.00	 2376.31	-1434.59	 1660.66
     46.5870	 2436.00	 2376.69	-1368.98	 1661.44
     46.6130	 2264.00	 2377.05	-1541.33	 1662.22
     46.6390	 2322.00	 2377.38	-1483.66	 1663.00
     46.6650	 2273.00	 2377.68	-1532.96	 1663.78
     46.6910	 2362.00	 2377.95	-1444.23	 1664.56
     46.7170	 2306.00	 2378.17	-1500.46	 1665.33
     46.7430	 2395.00	 2378.36	-1411.65	 1666.10
     46.7690	 2337.00	 2378.51	-1469.80	 1666.87
     46.7950	 2402.00	 2378.62	-1404.90	 1667.63
     46.8210	 2362.00	 2378.68	-1444.97	 1668.39
     46.8470	 2383.00	 2378.70	-1423.98	 1669.15
     46.8730	 2397.00	 2378.69	-1409.97	 1669.91
     46.8990	 2443.00	 2378.61	-1363.90	 1670.66
     46.9250	 2372.00	 2378.49	-1434.77	 1671.41
     46.9510	 2308.00	 2378.31	-1498.60	 1672.16
     46.9770	 2332.00	 2378.09	-1474.37	 1672.90
     47.0030	 2343.00	 2377.82	-1463.10	 1673.64
     47.0290	 2348.00	 2377.51	-1457.79	 1674.38
     47.0550	 2414.00	 2377.14	-1391.42	 1675.11
     47.0810	 2330.00	 2376.72	-1475.00	 1675.85
     47.1070	 2397.00	 2376.25	-1407.54	 1676.57
     47.1330	 2439.00	 2375.74	-1365.02	 1677.30
     47.1590	 2308.00	 2375.19	-1495.47	 1678.02
     47.1850	 2349.00	 2374.59	-1453.87	 1678.73
     47.2110	 2255.00	 2373.94	-1547.23	 1679.45
     47.2370	 2333.00	 2373.26	-1468.55	 1680.16
     47.2630	 2284.00	 2372.54	-1516.83	 1680.86
     47.2890	 2360.00	 2371.79	-1440.07	 1681.57
     47.3150	 2356.00	 2371.00	-1443.28	 1682.27
     47.3410	 2355.00	 2370.17	-1443.46	 1682.96
     47.3670	 2381.00	 2369.32	-1416.60	 1683.65
     47.3930	 2323.00	 2368.44	-1473.72	 1684.34
     47.4190	 2366.00	 2367.54	-1429.82	 1685.02
     47.4450	 2339.00	 2366.61	-1455.89	 1685.70
     47.4710	 2335.00	 2365.66	-1458.94	 1686.37
     47.4970	 2414.00	 2364.69	-1378.97	 1687.04
     47.5230	 2392.00	 2363.71	-1399.99	 1687.71
     47.5490	 2401.00	 2362.71	-1389.99	 1688.37
     47.5750	 2385.00	 2361.70	-1404.98	 1689.03
     47.6010	 2348.00	 2360.68	-1440.97	 1689.68
     47.6270	 2270.00	 2359.66	-1517.94	 1690.33
     47.6530	 2282.00	 2358.63	-1504.91	 1690.98
     47.6790	 2278.00	 2357.59	-1507.87	 1691.62
     47.7050	 2297.00	 2356.56	-1487.84	 1692.25
     47.7310	 2363.00	 2355.52	-1420.80	 1692.89
     47.7570	 2390.00	 2354.49	-1392.77	 1693.51
     47.7830	 2426.00	 2353.46	-1355.74	 1694.13
     47.8090	 2358.00	 2352.43	-1422.71	 1694.75
     47.8350	 2351.00	 2351.41	-1428.70	 1695.36
     47.8610	 2363.00	 2350.40	-1415.69	 1695.97
     47.8870	 2351.00	 2349.40	-1426.69	 1696.57
     47.9130	 2340.00	 2348.41	-1436.69	 1697.17
     47.9390	 2372.00	 2347.43	-1403.72	 1697.76
     47.9650	 2392.00	 2346.47	-1382.75	 1698.35
     47.9910	 2345.00	 2345.51	-1428.80	 1698.93
     48.0170	 2354.00	 2344.57	-1418.86	 1699.51
     48.0430	 2374.00	 2343.65	-1397.93	 1700.08
     48.0690	 2325.00	 2342.74	-1446.02	 1700.65
     48.0950	 2338.00	 2341.85	-1432.13	 1701.22
     48.1210	 2319.00	 2340.97	-1450.26	 1701.77
     48.1470	 2304.00	 2340.11	-1464.40	 1702.32
     48.1730	 2324.00	 2339.27	-1443.56	 1702.87
     48.1990	 2323.00	 2338.45	-1443.73	 1703.41
     48.2250	 2368.00	 2337.65	-1397.93	 1703.95
     48.2510	 2366.00	 2336.86	-1399.14	 1704.48
     48.2770	 2361.00	 2336.09	-1403.38	 1705.00
     48.3030	 2383.00	 2335.34	-1380.63	 1705.52
     48.3290	 2384.00	 2334.61	-1378.90	 1706.04
     48.3550	 2399.00	 2333.90	-1363.19	 1706.54
     48.3810	 2345.00	 2333.21	-1416.49	 1707.05
     48.4070	 2304.00	 2332.54	-1456.82	 1707.54
     48.4330	 2314.00	 2331.89	-1446.17	 1708.04
     48.4590	 2320.00	 2331.25	-1439.53	 1708.52
     48.4850	 2433.00	 2330.63	-1325.92	 1709.00
     48.5110	 2469.00	 2330.04	-1289.32	 1709.48
     48.5370	 2323.00	 2329.46	-1434.74	 1709.94
     48.5630	 2353.00	 2328.90	-1404.18	 1710.41
     48.5890	 2400.00	 2328.36	-1356.64	 1710.86
     48.6150	 2345.00	 2327.83	-1411.11	 1711.31
     48.6410	 2400.00	 2327.32	-1355.61	 1711.76
     48.6670	 2421.00	 2326.84	-1334.12	 1712.20
     48.6930	 2384.00	 2326.36	-1370.65	 1712.63
     48.7190	 2401.00	 2325.91	-1353.19	 1713.06
     48.7450	 2407.00	 2325.47	-1346.76	 1713.48
     48.7710	 2430.00	 2325.05	-1323.34	 1713.89
     48.7970	 2431.00	 2324.65	-1321.93	 1714.30
     48.8230	 2377.00	 2324.26	-1375.55	 1714.70
     48.8490	 2340.00	 2323.89	-1412.17	 1715.10
     48.8750	 2320.00	 2323.54	-1431.82	 1715.49
     48.9010	 2402.00	 2323.20	-1349.48	 1715.87
     48.9270	 2368.00	 2322.87	-1383.15	 1716.25
     48.9530	 2386.00	 2322.56	-1364.84	 1716.62
     48.9790	 2422.00	 2322.27	-1328.55	 1716.98
     49.0050	 2460.00	 2321.99	-1290.27	 1717.34
     49.0310	 2336.00	 2321.72	-1414.00	 1717.69
     49.0570	 2386.00	 2321.47	-1363.75	 1718.03
     49.0830	 2408.00	 2321.23	-1341.52	 1718.37
     49.1090	 2467.00	 2321.01	-1282.29	 1718.70
     49.1350	 2361.00	 2320.80	-1388.08	 1719.03
     49.1610	 2414.00	 2320.60	-1334.88	 1719.35
     49.1870	 2486.00	 2320.42	-1262.70	 1719.66
     49.2130	 2374.00	 2320.24	-1374.53	 1719.97
     49.2390	 2381.00	 2320.09	-1367.37	 1720.27
     49.2650	 2404.00	 2319.94	-1344.22	 1720.56
     49.2910	 2360.00	 2319.81	-1388.09	 1720.84
     49.3170	 2325.00	 2319.68	-1422.97	 1721.12
     49.3430	 2404.00	 2319.57	-1343.86	 1721.40
     49.3690	 2404.00	 2319.48	-1343.76	 1721.66
     49.3950	 2383.00	 2319.39	-1364.67	 1721.92
     49.4210	 2496.00	 2319.31	-1251.60	 1722.17
     49.4470	 2507.00	 2319.25	-1240.53	 1722.42
     49.4730	 2463.00	 2319.20	-1284.48	 1722.66
     49.4990	 2477.00	 2319.16	-1270.44	 1722.89
     49.5250	 2480.00	 2319.13	-1267.41	 1723.11
     49.5510	 2525.00	 2319.11	-1222.39	 1723.33
     49.5770	 2470.00	 2319.10	-1277.38	 1723.54
     49.6030	 2402.00	 2319.10	-1345.38	 1723.75
     49.6290	 2457.00	 2319.11	-1290.40	 1723.95
     49.6550	 2334.00	 2319.14	-1413.42	 1724.14
     49.6810	 2404.00	 2319.17	-1343.45	 1724.32
     49.7070	 2443.00	 2319.21	-1304.49	 1724.50
     49.7330	 2437.00	 2319.27	-1310.55	 1724.67
     49.7590	 2496.00	 2319.33	-1251.61	 1724.83
     49.7850	 2478.00	 2319.40	-1269.69	 1724.98
     49.8110	 2540.00	 2319.49	-1207.77	 1725.13
     49.8370	 2365.00	 2319.58	-1382.87	 1725.27
     49.8630	 2433.00	 2319.69	-1314.97	 1725.41
     49.8890	 2498.00	 2319.80	-1250.09	 1725.53
     49.9150	 2495.00	 2319.93	-1253.21	 1725.65
     49.9410	 2509.00	 2320.06	-1239.35	 1725.77
     49.9670	 2498.00	 2320.22	-1250.50	 1725.87
     49.9930	 2495.00	 2320.38	-1253.66	 1725.97
     50.0190	 2543.00	 2320.54	-1205.82	 1726.06
     50.0450	 2569.00	 2320.72	-1180.00	 1726.15
     50.0710	 2518.00	 2320.90	-1231.19	 1726.23
     50.0970	 2461.00	 2321.10	-1288.38	 1726.30
     50.1230	 2450.00	 2321.31	-1299.59	 1726.36
     50.1490	 2460.00	 2321.53	-1289.81	 1726.41
     50.1750	 2482.00	 2321.76	-1268.04	 1726.46
     50.2010	 2433.00	 2321.99	-1317.28	 1726.50
     50.2270	 2394.00	 2322.24	-1356.53	 1726.54
     50.2530	 2426.00	 2322.50	-1324.79	 1726.57
     50.2790	 2481.00	 2322.77	-1270.06	 1726.59
     50.3050	 2452.00	 2323.06	-1299.34	 1726.60
     50.3310	 2422.00	 2323.35	-1329.63	 1726.60
     50.3570	 2443.00	 2323.65	-1308.94	 1726.60
     50.3830	 2492.00	 2323.97	-1260.25	 1726.59
     50.4090	 2500.00	 2324.30	-1252.58	 1726.58
     50.4350	 2425.00	 2324.64	-1327.92	 1726.55
     50.4610	 2417.00	 2324.99	-1336.27	 1726.52
     50.4870	 2428.00	 2325.35	-1325.63	 1726.48
     50.5130	 2462.00	 2325.73	-1292.01	 1726.44
     50.5390	 2406.00	 2326.11	-1348.40	 1726.38
     50.5650	 2429.00	 2326.51	-1325.80	 1726.32
     50.5910	 2488.00	 2326.93	-1267.21	 1726.26
     50.6170	 2464.00	 2327.36	-1291.64	 1726.18
     50.6430	 2430.00	 2327.80	-1326.08	 1726.10
     50.6690	 2388.00	 2328.25	-1368.53	 1726.01
     50.6950	 2354.00	 2328.72	-1403.00	 1725.91
     50.7210	 2387.00	 2329.20	-1370.48	 1725.81
     50.7470	 2478.00	 2329.70	-1279.98	 1725.70
     50.7730	 2477.00	 2330.21	-1281.49	 1725.58
     50.7990	 2440.00	 2330.73	-1319.02	 1725.46
     50.8250	 2478.00	 2331.28	-1281.56	 1725.32
     50.8510	 2486.00	 2331.83	-1274.12	 1725.18
     50.8770	 2444.00	 2332.41	-1316.69	 1725.03
     50.9030	 2370.00	 2332.99	-1391.28	 1724.88
     50.9290	 2336.00	 2333.60	-1425.88	 1724.72
     50.9550	 2400.00	 2334.22	-1362.50	 1724.55
     50.9810	 2390.00	 2334.86	-1373.14	 1724.37
     51.0070	 2340.00	 2335.52	-1423.80	 1724.19
     51.0330	 2371.00	 2336.19	-1393.47	 1724.00
     51.0590	 2389.00	 2336.88	-1376.17	 1723.80
     51.0850	 2403.00	 2337.59	-1362.88	 1723.59
     51.1110	 2398.00	 2338.32	-1368.61	 1723.38
     51.1370	 2395.00	 2339.07	-1372.35	 1723.16
     51.1630	 2438.00	 2339.84	-1330.12	 1722.93
     51.1890	 2418.00	 2340.63	-1350.91	 1722.70
     51.2150	 2349.00	 2341.44	-1420.72	 1722.46
     51.2410	 2394.00	 2342.26	-1376.55	 1722.21
     51.2670	 2430.00	 2343.11	-1341.40	 1721.95
     51.2930	 2416.00	 2343.98	-1356.27	 1721.69
     51.3190	 2381.00	 2344.87	-1392.16	 1721.42
     51.3450	 2297.00	 2345.79	-1477.07	 1721.14
     51.3710	 2348.00	 2346.72	-1427.01	 1720.86
     51.3970	 2379.00	 2347.68	-1396.96	 1720.57
     51.4230	 2376.00	 2348.66	-1400.94	 1720.27
     51.4490	 2285.00	 2349.66	-1492.95	 1719.96
     51.4750	 2408.00	 2350.69	-1370.97	 1719.65
     51.5010	 2342.00	 2351.74	-1438.02	 1719.33
     51.5270	 2330.00	 2352.82	-1451.10	 1719.00
     51.5530	 2370.00	 2353.91	-1412.20	 1718.67
     51.5790	 2373.00	 2355.03	-1410.32	 1718.33
     51.6050	 2334.00	 2356.18	-1450.46	 1717.98
     51.6310	 2352.00	 2357.35	-1433.63	 1717.62
     51.6570	 2313.00	 2358.55	-1473.83	 1717.26
     51.6830	 2300.00	 2359.77	-1488.05	 1716.89
     51.7090	 2361.00	 2361.01	-1428.29	 1716.52
     51.7350	 2379.00	 2362.28	-1411.56	 1716.13
     51.7610	 2421.00	 2363.57	-1370.85	 1715.74
     51.7870	 2333.00	 2364.89	-1460.17	 1715.35
     51.8130	 2271.00	 2366.23	-1523.51	 1714.94
     51.8390	 2353.00	 2367.59	-1442.87	 1714.53
     51.8650	 2350.00	 2368.98	-1447.26	 1714.11
     51.8910	 2361.00	 2370.39	-1437.67	 1713.69
     51.9170	 2315.00	 2371.82	-1485.10	 1713.26
     51.9430	 2411.00	 2373.28	-1390.56	 1712.82
     51.9690	 2318.00	 2374.75	-1485.04	 1712.38
     51.9950	 2347.00	 2376.25	-1457.53	 1711.92
     52.0210	 2324.00	 2377.77	-1482.05	 1711.47
     52.0470	 2307.00	 2379.30	-1500.59	 1711.00
     52.0730	 2444.00	 2380.86	-1365.14	 1710.53
     52.0990	 2345.00	 2382.43	-1465.71	 1710.05
     52.1250	 2433.00	 2384.02	-1379.30	 1709.57
     52.1510	 2340.00	 2385.62	-1473.90	 1709.07
     52.1770	 2386.00	 2387.23	-1429.51	 1708.58
     52.2030	 2470.00	 2388.86	-1347.14	 1708.07
     52.2290	 2389.00	 2390.49	-1429.77	 1707.56
     52.2550	 2290.00	 2392.13	-1530.42	 1707.04
     52.2810	 2331.00	 2393.78	-1491.07	 1706.52
     52.3070	 2332.00	 2395.44	-1491.72	 1705.99
     52.3330	 2349.00	 2397.09	-1476.37	 1705.45
     52.3590	 2373.00	 2398.74	-1454.02	 1704.91
     52.3850	 2316.00	 2400.39	-1512.67	 1704.35
     52.4110	 2392.00	 2402.03	-1438.32	 1703.80
     52.4370	 2374.00	 2403.67	-1457.95	 1703.24
     52.4630	 2328.00	 2405.29	-1505.58	 1702.67
     52.4890	 2342.00	 2406.90	-1493.19	 1702.09
     52.5150	 2363.00	 2408.49	-1473.78	 1701.51
     52.5410	 2394.00	 2410.07	-1444.35	 1700.92
     52.5670	 2229.00	 2411.61	-1610.90	 1700.33
     52.5930	 2271.00	 2413.13	-1570.42	 1699.73
     52.6190	 2310.00	 2414.62	-1532.91	 1699.12
     52.6450	 2301.00	 2416.08	-1543.36	 1698.51
     52.6710	 2295.00	 2417.50	-1550.78	 1697.89
     52.6970	 2386.00	 2418.88	-1461.16	 1697.26
     52.7230	 2354.00	 2420.21	-1494.50	 1696.63
     52.7490	 2349.00	 2421.50	-1500.78	 1695.99
     52.7750	 2337.00	 2422.74	-1514.02	 1695.35
     52.8010	 2298.00	 2423.92	-1554.21	 1694.70
     52.8270	 2320.00	 2425.05	-1533.33	 1694.05
     52.8530	 2315.00	 2426.12	-1539.40	 1693.38
     52.8790	 2336.00	 2427.12	-1519.40	 1692.72
     52.9050	 2380.00	 2428.06	-1476.34	 1692.05
     52.9310	 2282.00	 2428.93	-1575.21	 1691.37
     52.9570	 2273.00	 2429.73	-1585.01	 1690.68
     52.9830	 2231.00	 2430.45	-1627.74	 1689.99
     53.0090	 2237.00	 2431.10	-1622.39	 1689.30
     53.0350	 2317.00	 2431.68	-1542.96	 1688.60
     53.0610	 2336.00	 2432.18	-1524.46	 1687.89
     53.0870	 2311.00	 2432.60	-1549.88	 1687.18
     53.1130	 2298.00	 2432.94	-1563.22	 1686.46
     53.1390	 2301.00	 2433.20	-1560.48	 1685.73
     53.1650	 2246.00	 2433.38	-1615.67	 1685.01
     53.1910	 2261.00	 2433.48	-1600.77	 1684.27
     53.2170	 2314.00	 2433.51	-1547.79	 1683.53
     53.2430	 2362.00	 2433.45	-1499.73	 1682.79
     53.2690	 2334.00	 2433.32	-1527.60	 1682.04
     53.2950	 2271.00	 2433.11	-1590.39	 1681.28
     53.3210	 2216.00	 2432.82	-1645.11	 1680.52
     53.3470	 2231.00	 2432.47	-1629.75	 1679.75
     53.3730	 2283.00	 2432.04	-1577.33	 1678.98
     53.3990	 2248.00	 2431.55	-1611.83	 1678.20
     53.4250	 2210.00	 2431.00	-1649.28	 1677.42
     53.4510	 2259.00	 2430.38	-1599.66	 1676.64
     53.4770	 2260.00	 2429.70	-1597.99	 1675.84
     53.5030	 2275.00	 2428.97	-1582.26	 1675.05
     53.5290	 2308.00	 2428.19	-1548.48	 1674.24
     53.5550	 2269.00	 2427.37	-1586.65	 1673.44
     53.5810	 2255.00	 2426.49	-1599.78	 1672.63
     53.6070	 2249.00	 2425.59	-1604.87	 1671.81
     53.6330	 2257.00	 2424.64	-1595.92	 1670.99
     53.6590	 2259.00	 2423.66	-1592.95	 1670.16
     53.6850	 2224.00	 2422.66	-1626.94	 1669.33
     53.7110	 2250.00	 2421.64	-1599.92	 1668.50
     53.7370	 2295.00	 2420.60	-1553.88	 1667.66
     53.7630	 2287.00	 2419.54	-1560.82	 1666.81
     53.7890	 2277.00	 2418.47	-1569.75	 1665.96
     53.8150	 2257.00	 2417.40	-1588.68	 1665.11
     53.8410	 2270.00	 2416.33	-1574.61	 1664.25
     53.8670	 2291.00	 2415.25	-1552.54	 1663.39
     53.8930	 2221.00	 2414.19	-1621.47	 1662.52
     53.9190	 2242.00	 2413.13	-1599.41	 1661.65
     53.9450	 2321.00	 2412.09	-1519.37	 1660.77
     53.9710	 2323.00	 2411.07	-1516.35	 1659.89
     53.9970	 2290.00	 2410.06	-1548.35	 1659.01
     54.0230	 2298.00	 2409.08	-1539.37	 1658.12
     54.0490	 2296.00	 2408.13	-1540.41	 1657.23
     54.0750	 2300.00	 2407.21	-1535.49	 1656.33
     54.1010	 2214.00	 2406.32	-1620.61	 1655.43
     54.1270	 2229.00	 2405.47	-1604.76	 1654.53
     54.1530	 2273.00	 2404.66	-1559.94	 1653.62
     54.1790	 2324.00	 2403.89	-1508.18	 1652.71
     54.2050	 2289.00	 2403.17	-1542.45	 1651.79
     54.2310	 2296.00	 2402.49	-1534.78	 1650.87
     54.2570	 2335.00	 2401.87	-1495.15	 1649.95
     54.2830	 2341.00	 2401.29	-1488.57	 1649.02
     54.3090	 2291.00	 2400.77	-1538.05	 1648.09
     54.3350	 2310.00	 2400.31	-1518.59	 1647.16
     54.3610	 2306.00	 2399.90	-1522.18	 1646.22
     54.3870	 2367.00	 2399.55	-1460.83	 1645.28
     54.4130	 2369.00	 2399.26	-1458.55	 1644.33
     54.4390	 2357.00	 2399.04	-1470.32	 1643.38
     54.4650	 2299.00	 2398.88	-1528.17	 1642.43
     54.4910	 2286.00	 2398.79	-1541.07	 1641.48
     54.5170	 2391.00	 2398.77	-1436.05	 1640.52
     54.5430	 2413.00	 2398.81	-1414.10	 1639.56
     54.5690	 2318.00	 2398.93	-1509.21	 1638.59
     54.5950	 2285.00	 2399.12	-1542.40	 1637.62
     54.6210	 2333.00	 2399.38	-1494.66	 1636.65
     54.6470	 2287.00	 2399.71	-1540.99	 1635.68
     54.6730	 2398.00	 2400.12	-1430.40	 1634.70
     54.6990	 2345.00	 2400.61	-1483.89	 1633.72
     54.7250	 2428.00	 2401.17	-1401.45	 1632.74
     54.7510	 2363.00	 2401.81	-1467.09	 1631.75
     54.7770	 2356.00	 2402.53	-1474.81	 1630.77
     54.8030	 2316.00	 2403.32	-1515.61	 1629.77
     54.8290	 2350.00	 2404.20	-1482.49	 1628.78
     54.8550	 2337.00	 2405.16	-1496.44	 1627.78
     54.8810	 2329.00	 2406.20	-1505.48	 1626.79
     54.9070	 2439.00	 2407.32	-1396.61	 1625.78
     54.9330	 2373.00	 2408.53	-1463.81	 1624.78
     54.9590	 2385.00	 2409.81	-1453.10	 1623.77
     54.9850	 2418.00	 2411.18	-1421.47	 1622.77
     55.0110	 2387.00	 2412.64	-1453.92	 1621.75
     55.0370	 2461.00	 2414.17	-1381.46	 1620.74
     55.0630	 2421.00	 2415.80	-1423.08	 1619.73
     55.0890	 2356.00	 2417.50	-1489.78	 1618.71
     55.1150	 2341.00	 2419.29	-1506.57	 1617.69
     55.1410	 2384.00	 2421.16	-1465.44	 1616.67
     55.1670	 2396.00	 2423.11	-1455.40	 1615.64
     55.1930	 2444.00	 2425.15	-1409.43	 1614.62
     55.2190	 2440.00	 2427.27	-1415.55	 1613.59
     55.2450	 2377.00	 2429.47	-1480.75	 1612.56
     55.2710	 2437.00	 2431.75	-1423.03	 1611.53
     55.2970	 2398.00	 2434.10	-1464.39	 1610.49
     55.3230	 2507.00	 2436.54	-1357.82	 1609.46
     55.3490	 2476.00	 2439.06	-1391.34	 1608.42
     55.3750	 2483.00	 2441.64	-1386.93	 1607.38
     55.4010	 2455.00	 2444.31	-1417.59	 1606.34
     55.4270	 2429.00	 2447.04	-1446.32	 1605.30
     55.4530	 2381.00	 2449.85	-1497.13	 1604.26
     55.4790	 2454.00	 2452.72	-1427.00	 1603.21
     55.5050	 2473.00	 2455.65	-1410.94	 1602.17
     55.5310	 2412.00	 2458.65	-1474.93	 1601.12
     55.5570	 2442.00	 2461.71	-1447.99	 1600.07
     55.5830	 2525.00	 2464.82	-1368.10	 1599.02
     55.6090	 2508.00	 2467.98	-1388.26	 1597.97
     55.6350	 2442.00	 2471.18	-1457.47	 1596.92
     55.6610	 2459.00	 2474.43	-1443.72	 1595.87
     55.6870	 2475.00	 2477.72	-1431.01	 1594.82
     55.7130	 2496.00	 2481.05	-1413.33	 1593.76
     55.7390	 2516.00	 2484.40	-1396.68	 1592.71
     55.7650	 2534.00	 2487.77	-1382.05	 1591.65
     55.7910	 2502.00	 2491.15	-1417.44	 1590.59
     55.8170	 2453.00	 2494.55	-1469.83	 1589.54
     55.8430	 2453.00	 2497.95	-1473.24	 1588.48
     55.8690	 2532.00	 2501.35	-1397.63	 1587.42
     55.8950	 2546.00	 2504.73	-1387.02	 1586.36
     55.9210	 2510.00	 2508.10	-1426.38	 1585.30
     55.9470	 2490.00	 2511.44	-1449.72	 1584.24
     55.9730	 2545.00	 2514.74	-1398.03	 1583.18
     55.9990	 2526.00	 2518.00	-1420.29	 1582.12
     56.0250	 2520.00	 2521.21	-1429.49	 1581.06
     56.0510	 2561.00	 2524.36	-1391.64	 1580.00
     56.0770	 2567.00	 2527.43	-1388.71	 1578.93
     56.1030	 2639.00	 2530.43	-1319.71	 1577.87
     56.1290	 2612.00	 2533.33	-1349.61	 1576.81
     56.1550	 2532.00	 2536.13	-1432.42	 1575.75
     56.1810	 2549.00	 2538.83	-1418.11	 1574.69
     56.2070	 2591.00	 2541.41	-1378.69	 1573.63
     56.2330	 2593.00	 2543.85	-1379.14	 1572.56
     56.2590	 2533.00	 2546.17	-1441.45	 1571.50
     56.2850	 2584.00	 2548.33	-1392.61	 1570.44
     56.3110	 2689.00	 2550.33	-1289.62	 1569.38
     56.3370	 2702.00	 2552.18	-1278.46	 1568.32
     56.3630	 2678.00	 2553.84	-1304.12	 1567.26
     56.3890	 2673.00	 2555.33	-1310.61	 1566.20
     56.4150	 2675.00	 2556.62	-1309.90	 1565.14
     56.4410	 2651.00	 2557.72	-1335.00	 1564.08
     56.4670	 2661.00	 2558.61	-1325.89	 1563.02
     56.4930	 2624.00	 2559.29	-1363.57	 1561.97
     56.5190	 2557.00	 2559.75	-1431.03	 1560.91
     56.5450	 2550.00	 2559.99	-1438.28	 1559.85
     56.5710	 2588.00	 2560.01	-1400.29	 1558.80
     56.5970	 2627.00	 2559.80	-1361.08	 1557.74
     56.6230	 2693.00	 2559.35	-1294.64	 1556.69
     56.6490	 2633.00	 2558.68	-1353.96	 1555.64
     56.6750	 2618.00	 2557.76	-1368.05	 1554.59
     56.7010	 2653.00	 2556.61	-1331.90	 1553.54
     56.7270	 2643.00	 2555.23	-1340.51	 1552.49
     56.7530	 2673.00	 2553.61	-1308.90	 1551.44
     56.7790	 2665.00	 2551.77	-1315.05	 1550.39
     56.8050	 2644.00	 2549.69	-1333.97	 1549.35
     56.8310	 2602.00	 2547.39	-1373.67	 1548.30
     56.8570	 2594.00	 2544.87	-1379.15	 1547.26
     56.8830	 2659.00	 2542.13	-1311.41	 1546.22
     56.9090	 2754.00	 2539.18	-1213.46	 1545.18
     56.9350	 2690.00	 2536.03	-1274.31	 1544.14
     56.9610	 2625.00	 2532.68	-1335.97	 1543.11
     56.9870	 2607.00	 2529.15	-1350.43	 1542.07
     57.0130	 2576.00	 2525.43	-1377.72	 1541.04
     57.0390	 2668.00	 2521.54	-1281.83	 1540.01
     57.0650	 2671.00	 2517.49	-1274.77	 1538.98
     57.0910	 2632.00	 2513.28	-1309.56	 1537.95
     57.1170	 2673.00	 2508.93	-1264.21	 1536.92
     57.1430	 2640.00	 2504.44	-1292.72	 1535.90
     57.1690	 2708.00	 2499.82	-1220.10	 1534.88
     57.1950	 2612.00	 2495.08	-1311.37	 1533.86
     57.2210	 2651.00	 2490.24	-1267.52	 1532.84
     57.2470	 2706.00	 2485.30	-1207.58	 1531.83
     57.2730	 2727.00	 2480.27	-1181.56	 1530.81
     57.2990	 2663.00	 2475.17	-1240.45	 1529.80
     57.3250	 2657.00	 2469.99	-1241.28	 1528.79
     57.3510	 2625.00	 2464.76	-1268.04	 1527.79
     57.3770	 2583.00	 2459.47	-1304.75	 1526.78
     57.4030	 2603.00	 2454.14	-1279.43	 1525.78
     57.4290	 2626.00	 2448.78	-1251.06	 1524.78
     57.4550	 2557.00	 2443.39	-1314.68	 1523.78
     57.4810	 2672.00	 2437.99	-1194.27	 1522.79
     57.5070	 2512.00	 2432.57	-1348.85	 1521.80
     57.5330	 2541.00	 2427.15	-1314.44	 1520.81
     57.5590	 2593.00	 2421.74	-1257.02	 1519.82
     57.5850	 2625.00	 2416.34	-1219.62	 1518.84
     57.6110	 2579.00	 2410.95	-1260.23	 1517.86
     57.6370	 2585.00	 2405.59	-1248.87	 1516.88
     57.6630	 2544.00	 2400.26	-1284.54	 1515.91
     57.6890	 2645.00	 2394.96	-1178.24	 1514.94
     57.7150	 2554.00	 2389.70	-1263.98	 1513.97
     57.7410	 2639.00	 2384.48	-1173.77	 1513.00
     57.7670	 2568.00	 2379.32	-1239.60	 1512.04
     57.7930	 2661.00	 2374.20	-1141.48	 1511.08
     57.8190	 2616.00	 2369.14	-1181.42	 1510.12
     57.8450	 2652.00	 2364.14	-1140.42	 1509.17
     57.8710	 2487.00	 2359.20	-1300.49	 1508.22
     57.8970	 2489.00	 2354.33	-1293.61	 1507.28
     57.9230	 2509.00	 2349.53	-1268.81	 1506.33
     57.9490	 2534.00	 2344.79	-1239.07	 1505.39
     57.9750	 2511.00	 2340.13	-1257.41	 1504.46
     58.0010	 2477.00	 2335.54	-1286.82	 1503.52
     58.0270	 2485.00	 2331.03	-1274.31	 1502.59
     58.0530	 2510.00	 2326.60	-1244.88	 1501.67
     58.0790	 2419.00	 2322.24	-1331.52	 1500.75
     58.1050	 2528.00	 2317.97	-1218.25	 1499.83
     58.1310	 2548.00	 2313.77	-1194.06	 1498.91
     58.1570	 2500.00	 2309.66	-1237.95	 1498.00
     58.1830	 2438.00	 2305.64	-1295.92	 1497.10
     58.2090	 2412.00	 2301.69	-1317.97	 1496.19
     58.2350	 2433.00	 2297.83	-1293.11	 1495.29
     58.2610	 2431.00	 2294.06	-1291.34	 1494.40
     58.2870	 2453.00	 2290.36	-1265.65	 1493.51
     58.3130	 2408.00	 2286.76	-1307.04	 1492.62
     58.3390	 2464.00	 2283.24	-1247.52	 1491.74
     58.3650	 2414.00	 2279.80	-1294.08	 1490.86
     58.3910	 2395.00	 2276.45	-1309.73	 1489.98
     58.4170	 2427.00	 2273.18	-1274.47	 1489.11
     58.4430	 2409.00	 2270.00	-1289.29	 1488.25
     58.4690	 2403.00	 2266.91	-1292.19	 1487.38
     58.4950	 2349.00	 2263.90	-1343.18	 1486.52
     58.5210	 2298.00	 2260.97	-1391.26	 1485.67
     58.5470	 2349.00	 2258.13	-1337.41	 1484.82
     58.5730	 2402.00	 2255.37	-1281.66	 1483.98
     58.5990	 2395.00	 2252.70	-1285.98	 1483.14
     58.6250	 2362.00	 2250.11	-1316.39	 1482.30
     58.6510	 2293.00	 2247.60	-1382.88	 1481.47
     58.6770	 2298.00	 2245.17	-1375.46	 1480.64
     58.7030	 2360.00	 2242.83	-1311.11	 1479.82
     58.7290	 2354.00	 2240.57	-1314.85	 1479.00
     58.7550	 2324.00	 2238.39	-1342.67	 1478.19
     58.7810	 2317.00	 2236.29	-1347.58	 1477.38
     58.8070	 2352.00	 2234.28	-1310.56	 1476.57
     58.8330	 2337.00	 2232.34	-1323.62	 1475.77
     58.8590	 2289.00	 2230.48	-1369.77	 1474.98
     58.8850	 2271.00	 2228.71	-1385.99	 1474.19
     58.9110	 2292.00	 2227.01	-1363.30	 1473.40
     58.9370	 2331.00	 2225.40	-1322.68	 1472.62
     58.9630	 2326.00	 2223.86	-1326.14	 1471.85
     58.9890	 2346.00	 2222.40	-1304.68	 1471.08
     59.0150	 2288.00	 2221.02	-1361.31	 1470.31
     59.0410	 2300.00	 2219.72	-1348.01	 1469.55
     59.0670	 2283.00	 2218.50	-1363.79	 1468.80
     59.0930	 2277.00	 2217.36	-1368.64	 1468.05
     59.1190	 2249.00	 2216.30	-1395.58	 1467.30
     59.1450	 2235.00	 2215.31	-1408.59	 1466.57
     59.1710	 2137.00	 2214.40	-1505.69	 1465.83
     59.1970	 2176.00	 2213.57	-1465.86	 1465.10
     59.2230	 2277.00	 2212.82	-1364.11	 1464.38
     59.2490	 2281.00	 2212.15	-1359.43	 1463.66
     59.2750	 2222.00	 2211.56	-1417.84	 1462.94
     59.3010	 2194.00	 2211.04	-1445.32	 1462.24
     59.3270	 2181.00	 2210.61	-1457.89	 1461.53
     59.3530	 2253.00	 2210.25	-1385.53	 1460.84
     59.3790	 2324.00	 2209.97	-1314.25	 1460.14
     59.4050	 2175.00	 2209.77	-1463.05	 1459.46
     59.4310	 2241.00	 2209.65	-1396.94	 1458.78
     59.4570	 2188.00	 2209.61	-1449.90	 1458.10
     59.4830	 2213.00	 2209.66	-1424.94	 1457.43
     59.5090	 2190.00	 2209.78	-1448.06	 1456.76
     59.5350	 2175.00	 2209.98	-1463.26	 1456.11
     59.5610	 2165.00	 2210.27	-1473.55	 1455.45
     59.5870	 2242.00	 2210.64	-1396.92	 1454.80
     59.6130	 2224.00	 2211.09	-1415.37	 1454.16
     59.6390	 2172.00	 2211.62	-1467.90	 1453.52
     59.6650	 2215.00	 2212.24	-1425.52	 1452.89
     59.6910	 2242.00	 2212.94	-1399.22	 1452.27
     59.7170	 2200.00	 2213.73	-1442.01	 1451.65
     59.7430	 2169.00	 2214.60	-1473.88	 1451.03
     59.7690	 2178.00	 2215.56	-1465.84	 1450.43
     59.7950	 2153.00	 2216.61	-1491.89	 1449.82
     59.8210	 2142.00	 2217.74	-1504.02	 1449.23
     59.8470	 2135.00	 2218.97	-1512.25	 1448.64
     59.8730	 2097.00	 2220.28	-1551.56	 1448.05
     59.8990	 2144.00	 2221.69	-1505.97	 1447.47
     59.9250	 2126.00	 2223.18	-1525.47	 1446.90
     59.9510	 2186.00	 2224.77	-1467.06	 1446.33
     59.9770	 2117.00	 2226.46	-1537.74	 1445.77
     60.0030	 2189.00	 2228.24	-1467.52	 1445.21
     60.0290	 2247.00	 2230.11	-1411.39	 1444.66
     60.0550	 2223.00	 2232.08	-1437.37	 1444.12
     60.0810	 2156.00	 2234.15	-1506.44	 1443.58
     60.1070	 2148.00	 2236.32	-1516.61	 1443.05
     60.1330	 2158.00	 2238.60	-1508.88	 1442.53
     60.1590	 2129.00	 2240.97	-1540.25	 1442.01
     60.1850	 2118.00	 2243.44	-1553.73	 1441.49
     60.2110	 2172.00	 2246.03	-1502.31	 1440.98
     60.2370	 2143.00	 2248.71	-1533.99	 1440.48
     60.2630	 2177.00	 2251.47	-1502.75	 1439.99
     60.2890	 2204.00	 2254.37	-1478.65	 1439.50
     60.3150	 2180.00	 2257.38	-1505.67	 1439.01
     60.3410	 2173.00	 2260.51	-1515.79	 1438.54
     60.3670	 2128.00	 2263.72	-1564.01	 1438.07
     60.3930	 2118.00	 2267.08	-1577.36	 1437.60
     60.4190	 2174.00	 2270.54	-1524.82	 1437.14
     60.4450	 2145.00	 2274.12	-1557.41	 1436.69
     60.4710	 2112.00	 2277.83	-1594.11	 1436.24
     60.4970	 2185.00	 2281.65	-1524.93	 1435.80
     60.5230	 2174.00	 2285.59	-1539.88	 1435.37
     60.5490	 2154.00	 2289.66	-1563.94	 1434.94
     60.5750	 2152.00	 2293.85	-1570.13	 1434.52
     60.6010	 2141.00	 2298.17	-1585.45	 1434.11
     60.6270	 2153.00	 2302.61	-1577.90	 1433.70
     60.6530	 2130.00	 2307.19	-1605.47	 1433.29
     60.6790	 2134.00	 2311.89	-1606.18	 1432.90
     60.7050	 2151.00	 2316.73	-1594.01	 1432.51
     60.7310	 2126.00	 2321.70	-1623.98	 1432.12
     60.7570	 2181.00	 2326.81	-1574.09	 1431.74
     60.7830	 2192.00	 2332.05	-1568.33	 1431.37
     60.8090	 2171.00	 2337.43	-1594.71	 1431.01
     60.8350	 2164.00	 2342.95	-1607.23	 1430.65
     60.8610	 2164.00	 2348.61	-1612.89	 1430.30
     60.8870	 2148.00	 2354.42	-1634.70	 1429.95
     60.9130	 2152.00	 2360.37	-1636.65	 1429.61
     60.9390	 2188.00	 2366.46	-1606.75	 1429.27
     60.9650	 2153.00	 2372.71	-1647.99	 1428.95
     60.9910	 2151.00	 2379.10	-1656.38	 1428.63
     61.0170	 2114.00	 2385.65	-1699.93	 1428.31
     61.0430	 2095.00	 2392.35	-1725.63	 1428.00
     61.0690	 2143.00	 2399.21	-1684.49	 1427.70
     61.0950	 2168.00	 2406.22	-1666.51	 1427.40
     61.1210	 2169.00	 2413.40	-1672.69	 1427.11
     61.1470	 2201.00	 2420.75	-1648.03	 1426.83
     61.1730	 2193.00	 2428.26	-1663.55	 1426.55
     61.1990	 2150.00	 2435.95	-1714.23	 1426.28
     61.2250	 2165.00	 2443.82	-1707.10	 1426.01
     61.2510	 2128.00	 2451.87	-1752.15	 1425.76
     61.2770	 2146.00	 2460.11	-1742.39	 1425.50
     61.3030	 2197.00	 2468.54	-1699.83	 1425.26
     61.3290	 2205.00	 2477.19	-1700.47	 1425.02
     61.3550	 2170.00	 2486.05	-1744.33	 1424.78
     61.3810	 2164.00	 2495.13	-1759.42	 1424.56
     61.4070	 2234.00	 2504.46	-1698.74	 1424.34
     61.4330	 2295.00	 2514.04	-1647.33	 1424.12
     61.4590	 2315.00	 2523.90	-1637.18	 1423.91
     61.4850	 2258.00	 2534.06	-1704.34	 1423.71
     61.5110	 2305.00	 2544.53	-1667.81	 1423.51
     61.5370	 2394.00	 2555.35	-1589.64	 1423.32
     61.5630	 2386.00	 2566.56	-1608.84	 1423.14
     61.5890	 2406.00	 2578.18	-1600.47	 1422.96
     61.6150	 2460.00	 2590.27	-1558.56	 1422.79
     61.6410	 2490.00	 2602.87	-1541.16	 1422.62
     61.6670	 2505.00	 2616.04	-1539.32	 1422.46
     61.6930	 2578.00	 2629.84	-1480.13	 1422.31
     61.7190	 2629.00	 2644.35	-1443.64	 1422.16
     61.7450	 2617.00	 2659.65	-1470.94	 1422.02
     61.7710	 2631.00	 2675.83	-1473.12	 1421.89
     61.7970	 2715.00	 2693.00	-1406.28	 1421.76
     61.8230	 2773.00	 2711.25	-1366.53	 1421.64
     61.8490	 2835.00	 2730.72	-1324.01	 1421.52
     61.8750	 2878.00	 2751.53	-1301.81	 1421.41
     61.9010	 2954.00	 2773.80	-1248.08	 1421.30
     61.9270	 2967.00	 2797.66	-1258.95	 1421.21
     61.9530	 2922.00	 2823.23	-1329.51	 1421.11
     61.9790	 3024.00	 2850.57	-1254.85	 1421.03
     62.0050	 3067.00	 2879.74	-1241.03	 1420.95
     62.0310	 3188.00	 2910.71	-1150.99	 1420.87
     62.0570	 3209.00	 2943.34	-1162.62	 1420.80
     62.0830	 3202.00	 2977.35	-1203.64	 1420.74
     62.1090	 3275.00	 3012.33	-1165.61	 1420.68
     62.1350	 3311.00	 3047.61	-1164.89	 1420.63
     62.1610	 3414.00	 3082.33	-1096.61	 1420.59
     62.1870	 3408.00	 3115.43	-1135.71	 1420.55
     62.2130	 3491.00	 3145.71	-1082.99	 1420.51
     62.2390	 3614.00	 3171.90	 -986.18	 1420.49
     62.2650	 3585.00	 3192.83	-1036.11	 1420.46
     62.2910	 3542.00	 3207.58	-1093.86	 1420.45
     62.3170	 3528.00	 3215.54	-1115.82	 1420.44
     62.3430	 3635.00	 3216.47	-1009.76	 1420.43
     62.3690	 3638.00	 3210.52	-1000.80	 1420.43
     62.3950	 3628.00	 3198.09	 -998.37	 1420.44
     62.4210	 3615.00	 3179.79	 -993.07	 1420.45
     62.4470	 3656.00	 3156.33	 -928.61	 1420.47
     62.4730	 3608.00	 3128.53	 -948.81	 1420.49
     62.4990	 3543.00	 3097.22	 -982.50	 1420.52
     62.5250	 3485.00	 3063.30	-1006.58	 1420.56
     62.5510	 3515.00	 3027.65	 -940.93	 1420.59
     62.5770	 3455.00	 2991.12	 -964.40	 1420.64
     62.6030	 3441.00	 2954.46	 -941.75	 1420.69
     62.6290	 3248.00	 2918.33	-1098.61	 1420.75
     62.6550	 3177.00	 2883.21	-1134.50	 1420.81
     62.6810	 3172.00	 2849.48	-1105.76	 1420.88
     62.7070	 3129.00	 2817.35	-1116.64	 1420.95
     62.7330	 2992.00	 2786.95	-1223.24	 1421.03
     62.7590	 3003.00	 2758.32	-1183.60	 1421.11
     62.7850	 2998.00	 2731.42	-1161.70	 1421.20
     62.8110	 2856.00	 2706.19	-1278.47	 1421.29
     62.8370	 2803.00	 2682.52	-1307.81	 1421.39
     62.8630	 2722.00	 2660.33	-1366.61	 1421.49
     62.8890	 2695.00	 2639.48	-1372.76	 1421.60
     62.9150	 2654.00	 2619.87	-1394.15	 1421.72
     62.9410	 2638.00	 2601.38	-1391.67	 1421.84
     62.9670	 2578.00	 2583.92	-1434.20	 1421.96
     62.9930	 2412.00	 2567.39	-1583.67	 1422.09
     63.0190	 2438.00	 2551.70	-1541.99	 1422.22
     63.0450	 2445.00	 2536.78	-1520.06	 1422.36
     63.0710	 2387.00	 2522.55	-1563.83	 1422.51
     63.0970	 2408.00	 2508.95	-1529.23	 1422.66
     63.1230	 2397.00	 2495.93	-1527.21	 1422.81
     63.1490	 2335.00	 2483.43	-1576.72	 1422.97
     63.1750	 2295.00	 2471.42	-1604.70	 1423.13
     63.2010	 2232.00	 2459.85	-1656.14	 1423.30
     63.2270	 2309.00	 2448.70	-1567.98	 1423.47
     63.2530	 2271.00	 2437.92	-1595.20	 1423.65
     63.2790	 2277.00	 2427.50	-1578.78	 1423.83
     63.3050	 2298.00	 2417.40	-1547.69	 1424.02
     63.3310	 2301.00	 2407.62	-1534.90	 1424.21
     63.3570	 2315.00	 2398.12	-1511.41	 1424.41
     63.3830	 2273.00	 2388.90	-1544.19	 1424.61
     63.4090	 2264.00	 2379.94	-1544.23	 1424.81
     63.4350	 2231.00	 2371.23	-1568.51	 1425.02
     63.4610	 2275.00	 2362.75	-1516.03	 1425.23
     63.4870	 2276.00	 2354.49	-1506.78	 1425.45
     63.5130	 2237.00	 2346.45	-1537.74	 1425.67
     63.5390	 2269.00	 2338.62	-1497.90	 1425.90
     63.5650	 2259.00	 2330.98	-1500.26	 1426.13
     63.5910	 2256.00	 2323.54	-1495.82	 1426.36
     63.6170	 2291.00	 2316.27	-1453.56	 1426.60
     63.6430	 2293.00	 2309.19	-1444.47	 1426.84
     63.6690	 2222.00	 2302.28	-1508.56	 1427.09
     63.6950	 2215.00	 2295.53	-1508.82	 1427.34
     63.7210	 2264.00	 2288.95	-1453.23	 1427.60
     63.7470	 2235.00	 2282.53	-1475.81	 1427.85
     63.7730	 2165.00	 2276.26	-1539.54	 1428.12
     63.7990	 2105.00	 2270.14	-1593.42	 1428.38
     63.8250	 2136.00	 2264.16	-1556.44	 1428.65
     63.8510	 2210.00	 2258.32	-1476.61	 1428.93
     63.8770	 2201.00	 2252.63	-1479.91	 1429.20
     63.9030	 2164.00	 2247.06	-1511.35	 1429.49
     63.9290	 2131.00	 2241.63	-1538.92	 1429.77
     63.9550	 2125.00	 2236.33	-1539.61	 1430.06
     63.9810	 2145.00	 2231.15	-1514.43	 1430.35
     64.0070	 2184.00	 2226.09	-1470.38	 1430.64
     64.0330	 2228.00	 2221.16	-1421.44	 1430.94
     64.0590	 2218.00	 2216.34	-1426.62	 1431.24
     64.0850	 2228.00	 2211.63	-1411.91	 1431.55
     64.1110	 2252.00	 2207.04	-1383.32	 1431.86
     64.1370	 2165.00	 2202.55	-1465.83	 1432.17
     64.1630	 2115.00	 2198.17	-1511.45	 1432.48
     64.1890	 2176.00	 2193.89	-1446.17	 1432.80
     64.2150	 2184.00	 2189.71	-1434.00	 1433.12
     64.2410	 2190.00	 2185.64	-1423.92	 1433.45
     64.2670	 2159.00	 2181.66	-1450.94	 1433.77
     64.2930	 2147.00	 2177.77	-1459.05	 1434.10
     64.3190	 2181.00	 2173.98	-1421.26	 1434.44
     64.3450	 2131.00	 2170.27	-1467.56	 1434.77
     64.3710	 2142.00	 2166.66	-1452.94	 1435.11
     64.3970	 2131.00	 2163.13	-1460.41	 1435.45
     64.4230	 2137.00	 2159.68	-1450.97	 1435.80
     64.4490	 2152.00	 2156.32	-1432.60	 1436.14
     64.4750	 2116.00	 2153.04	-1465.32	 1436.49
     64.5010	 2097.00	 2149.84	-1481.12	 1436.84
     64.5270	 2160.00	 2146.71	-1414.99	 1437.20
     64.5530	 2178.00	 2143.66	-1393.94	 1437.55
     64.5790	 2139.00	 2140.68	-1429.96	 1437.91
     64.6050	 2180.00	 2137.77	-1386.05	 1438.27
     64.6310	 2183.00	 2134.93	-1380.21	 1438.64
     64.6570	 2137.00	 2132.16	-1423.44	 1439.00
     64.6830	 2130.00	 2129.46	-1427.74	 1439.37
     64.7090	 2088.00	 2126.82	-1467.10	 1439.74
     64.7350	 2094.00	 2124.25	-1458.53	 1440.11
     64.7610	 2130.00	 2121.73	-1420.02	 1440.48
     64.7870	 2066.00	 2119.28	-1481.56	 1440.86
     64.8130	 2131.00	 2116.89	-1414.17	 1441.24
     64.8390	 2100.00	 2114.55	-1442.83	 1441.62
     64.8650	 2050.00	 2112.27	-1490.56	 1442.00
     64.8910	 2070.00	 2110.05	-1468.33	 1442.38
     64.9170	 2092.00	 2107.88	-1444.16	 1442.77
     64.9430	 2041.00	 2105.76	-1493.04	 1443.15
     64.9690	 2099.00	 2103.69	-1432.97	 1443.54
     64.9950	 2081.00	 2101.67	-1448.96	 1443.93
     65.0210	 2006.00	 2099.71	-1521.99	 1444.32
     65.0470	 2015.00	 2097.78	-1511.07	 1444.71
     65.0730	 2072.00	 2095.91	-1452.19	 1445.11
     65.0990	 2056.00	 2094.08	-1466.36	 1445.50
     65.1250	 2024.00	 2092.29	-1496.58	 1445.90
     65.1510	 2077.00	 2090.55	-1441.83	 1446.30
     65.1770	 2039.00	 2088.85	-1478.13	 1446.69
     65.2030	 2092.00	 2087.19	-1423.47	 1447.09
     65.2290	 1991.00	 2085.57	-1522.85	 1447.49
     65.2550	 2017.00	 2083.99	-1495.27	 1447.90
     65.2810	 2081.00	 2082.44	-1429.73	 1448.30
     65.3070	 2094.00	 2080.94	-1415.22	 1448.70
     65.3330	 2063.00	 2079.47	-1444.75	 1449.11
     65.3590	 2019.00	 2078.03	-1487.31	 1449.51
     65.3850	 1986.00	 2076.63	-1518.91	 1449.92
     65.4110	 2054.00	 2075.26	-1449.55	 1450.32
     65.4370	 2121.00	 2073.93	-1381.21	 1450.73
     65.4630	 2136.00	 2072.63	-1364.91	 1451.14
     65.4890	 2069.00	 2071.36	-1430.64	 1451.55
     65.5150	 2060.00	 2070.12	-1438.40	 1451.96
     65.5410	 2068.00	 2068.91	-1429.19	 1452.36
     65.5670	 2081.00	 2067.73	-1415.01	 1452.77
     65.5930	 2062.00	 2066.57	-1432.86	 1453.18
     65.6190	 2131.00	 2065.45	-1362.73	 1453.59
     65.6450	 2017.00	 2064.35	-1475.63	 1454.00
     65.6710	 2088.00	 2063.28	-1403.56	 1454.41
     65.6970	 1983.00	 2062.23	-1507.51	 1454.82
     65.7230	 1967.00	 2061.21	-1522.49	 1455.23
     65.7490	 2004.00	 2060.22	-1484.50	 1455.64
     65.7750	 2035.00	 2059.24	-1452.53	 1456.05
     65.8010	 2019.00	 2058.29	-1467.58	 1456.46
     65.8270	 2017.00	 2057.37	-1468.65	 1456.87
     65.8530	 2026.00	 2056.47	-1458.75	 1457.28
     65.8790	 2047.00	 2055.59	-1436.87	 1457.69
     65.9050	 2023.00	 2054.73	-1460.01	 1458.10
     65.9310	 1956.00	 2053.89	-1526.17	 1458.50
     65.9570	 2011.00	 2053.07	-1470.35	 1458.91
     65.9830	 2028.00	 2052.27	-1452.55	 1459.32
     66.0090	 2008.00	 2051.49	-1471.78	 1459.72
     66.0350	 1945.00	 2050.73	-1534.02	 1460.13
     66.0610	 2032.00	 2049.99	-1446.28	 1460.53
     66.0870	 2017.00	 2049.27	-1460.55	 1460.94
     66.1130	 2054.00	 2048.57	-1422.85	 1461.34
     66.1390	 2038.00	 2047.88	-1438.16	 1461.74
     66.1650	 2101.00	 2047.21	-1374.49	 1462.14
     66.1910	 2100.00	 2046.56	-1374.84	 1462.54
     66.2170	 2038.00	 2045.92	-1436.20	 1462.94
     66.2430	 2085.00	 2045.30	-1388.58	 1463.34
     66.2690	 2094.00	 2044.69	-1378.98	 1463.74
     66.2950	 2086.00	 2044.10	-1386.39	 1464.13
     66.3210	 2032.00	 2043.53	-1439.81	 1464.53
     66.3470	 2039.00	 2042.97	-1432.25	 1464.92
     66.3730	 2072.00	 2042.42	-1398.70	 1465.31
     66.3990	 2115.00	 2041.89	-1355.17	 1465.70
     66.4250	 2097.00	 2041.37	-1372.65	 1466.09
     66.4510	 2064.00	 2040.87	-1405.15	 1466.48
     66.4770	 2073.00	 2040.37	-1395.66	 1466.86
     66.5030	 2049.00	 2039.90	-1419.18	 1467.25
     66.5290	 2028.00	 2039.43	-1439.71	 1467.63
     66.5550	 2059.00	 2038.98	-1408.26	 1468.01
     66.5810	 2080.00	 2038.21	-1386.49	 1468.39
     66.6070	 2068.00	 2037.78	-1398.06	 1468.77
     66.6330	 2060.00	 2037.36	-1405.64	 1469.14
     66.6590	 2050.00	 2036.95	-1415.23	 1469.51
     66.6850	 2081.00	 2036.39	-1383.68	 1469.89
     66.7110	 2099.00	 2036.01	-1365.29	 1470.25
     66.7370	 2065.00	 2035.64	-1398.92	 1470.62
     66.7630	 2094.00	 2035.27	-1369.56	 1470.99
     66.7890	 2114.00	 2034.92	-1349.20	 1471.35
     66.8150	 2107.00	 2034.58	-1355.86	 1471.71
     66.8410	 2129.00	 2034.24	-1333.53	 1472.07
     66.8670	 2109.00	 2033.92	-1353.20	 1472.42
     66.8930	 2047.00	 2033.61	-1414.89	 1472.78
     66.9190	 2075.00	 2033.30	-1386.59	 1473.13
     66.9450	 2089.00	 2033.01	-1372.29	 1473.47
     66.9710	 2106.00	 2032.72	-1355.01	 1473.82
     66.9970	 2075.00	 2032.45	-1385.73	 1474.16
     67.0230	 2105.00	 2032.18	-1355.46	 1474.50
     67.0490	 2056.00	 2031.92	-1404.20	 1474.84
     67.0750	 2028.00	 2031.67	-1431.95	 1475.18
     67.1010	 2078.00	 2031.43	-1381.71	 1475.51
     67.1270	 2059.00	 2031.19	-1400.47	 1475.84
     67.1530	 2039.00	 2030.96	-1420.25	 1476.16
     67.1790	 2053.00	 2030.75	-1406.03	 1476.49
     67.2050	 2043.00	 2030.53	-1415.82	 1476.81
     67.2310	 2039.00	 2030.33	-1419.61	 1477.13
     67.2570	 2024.00	 2030.14	-1434.42	 1477.44
     67.2830	 2080.00	 2029.95	-1378.23	 1477.75
     67.3090	 2055.00	 2029.77	-1403.05	 1478.06
     67.3350	 2038.00	 2029.59	-1419.88	 1478.37
     67.3610	 2009.00	 2029.43	-1448.71	 1478.67
     67.3870	 2089.00	 2029.27	-1368.55	 1478.97
     67.4130	 2168.00	 2029.12	-1289.40	 1479.26
     67.4390	 2073.00	 2028.97	-1384.25	 1479.55
     67.4650	 2082.00	 2028.83	-1375.11	 1479.84
     67.4910	 2150.00	 2028.70	-1306.98	 1480.13
     67.5170	 2067.00	 2028.57	-1389.86	 1480.41
     67.5430	 2002.00	 2028.45	-1454.74	 1480.69
     67.5690	 2064.00	 2028.34	-1392.62	 1480.96
     67.5950	 2069.00	 2028.23	-1387.52	 1481.23
     67.6210	 2032.00	 2028.13	-1424.42	 1481.50
     67.6470	 2070.00	 2028.04	-1386.32	 1481.77
     67.6730	 2074.00	 2027.95	-1382.23	 1482.03
     67.6990	 2022.00	 2027.87	-1434.15	 1482.28
     67.7250	 1967.00	 2027.79	-1489.07	 1482.54
     67.7510	 2068.00	 2027.72	-1388.00	 1482.78
     67.7770	 2038.00	 2027.65	-1417.94	 1483.03
     67.8030	 2140.00	 2027.60	-1315.88	 1483.27
     67.8290	 2171.00	 2027.54	-1284.82	 1483.51
     67.8550	 2040.00	 2027.49	-1415.78	 1483.74
     67.8810	 2080.00	 2027.45	-1375.73	 1483.97
     67.9070	 2157.00	 2027.41	-1298.69	 1484.20
     67.9330	 2084.00	 2027.38	-1371.66	 1484.42
     67.9590	 2123.00	 2027.35	-1332.64	 1484.63
     67.9850	 2014.00	 2027.33	-1441.61	 1484.85
     68.0110	 2036.00	 2027.31	-1419.60	 1485.06
     68.0370	 2065.00	 2027.30	-1390.59	 1485.26
     68.0630	 1999.00	 2027.30	-1456.58	 1485.46
     68.0890	 2019.00	 2027.30	-1436.58	 1485.66
     68.1150	 2060.00	 2027.30	-1395.58	 1485.85
     68.1410	 2082.00	 2027.31	-1373.59	 1486.04
     68.1670	 2091.00	 2027.32	-1364.61	 1486.22
     68.1930	 2156.00	 2027.34	-1299.62	 1486.40
     68.2190	 2100.00	 2027.37	-1355.65	 1486.58
     68.2450	 2073.00	 2027.39	-1382.68	 1486.75
     68.2710	 2083.00	 2027.43	-1372.71	 1486.91
     68.2970	 2075.00	 2027.47	-1380.75	 1487.07
     68.3230	 2053.00	 2027.51	-1402.79	 1487.23
     68.3490	 2047.00	 2027.56	-1408.84	 1487.38
     68.3750	 2137.00	 2027.61	-1318.89	 1487.53
     68.4010	 2112.00	 2027.67	-1343.95	 1487.67
     68.4270	 2051.00	 2027.73	-1405.01	 1487.81
     68.4530	 2101.00	 2027.80	-1355.08	 1487.95
     68.4790	 2071.00	 2027.87	-1385.15	 1488.08
     68.5050	 2040.00	 2027.95	-1416.23	 1488.20
     68.5310	 2035.00	 2028.03	-1421.31	 1488.32
     68.5570	 2075.00	 2028.11	-1381.40	 1488.44
     68.5830	 2082.00	 2028.20	-1374.49	 1488.55
     68.6090	 2080.00	 2028.30	-1376.58	 1488.66
     68.6350	 2089.00	 2028.40	-1367.68	 1488.76
     68.6610	 2071.00	 2028.50	-1385.79	 1488.86
     68.6870	 2028.00	 2028.61	-1428.90	 1488.95
     68.7130	 2052.00	 2028.73	-1405.01	 1489.04
     68.7390	 2064.00	 2028.85	-1393.13	 1489.12
     68.7650	 2064.00	 2028.97	-1393.25	 1489.20
     68.7910	 2107.00	 2029.10	-1350.38	 1489.27
     68.8170	 2001.00	 2029.23	-1456.52	 1489.34
     68.8430	 2045.00	 2029.37	-1412.65	 1489.40
     68.8690	 2085.00	 2029.51	-1372.80	 1489.46
     68.8950	 2012.00	 2029.66	-1445.94	 1489.52
     68.9210	 2028.00	 2029.81	-1430.09	 1489.57
     68.9470	 2104.00	 2029.97	-1354.25	 1489.61
     68.9730	 2111.00	 2030.13	-1347.41	 1489.65
     68.9990	 2075.00	 2030.29	-1383.58	 1489.68
     69.0250	 2031.00	 2030.46	-1427.75	 1489.71
     69.0510	 2028.00	 2030.64	-1430.92	 1489.74
     69.0770	 2093.00	 2030.82	-1366.10	 1489.76
     69.1030	 2111.00	 2031.00	-1348.28	 1489.78
     69.1290	 2096.00	 2031.19	-1363.47	 1489.79
     69.1550	 2122.00	 2031.38	-1337.66	 1489.79
     69.1810	 2113.00	 2031.57	-1346.86	 1489.79
     69.2070	 2083.00	 2031.77	-1377.06	 1489.79
     69.2330	 2121.00	 2031.98	-1339.26	 1489.78
     69.2590	 2079.00	 2032.19	-1381.47	 1489.77
     69.2850	 2010.00	 2032.40	-1450.68	 1489.75
     69.3110	 2033.00	 2032.61	-1427.90	 1489.72
     69.3370	 2040.00	 2032.83	-1421.12	 1489.69
     69.3630	 2027.00	 2033.05	-1434.34	 1489.66
     69.3890	 2046.00	 2033.28	-1415.56	 1489.62
     69.4150	 2104.00	 2033.52	-1357.80	 1489.58
     69.4410	 2079.00	 2033.75	-1383.03	 1489.53
     69.4670	 2067.00	 2033.98	-1395.27	 1489.48
     69.4930	 2077.00	 2034.22	-1385.50	 1489.42
     69.5190	 2093.00	 2034.46	-1369.74	 1489.36
     69.5450	 2114.00	 2034.70	-1348.98	 1489.29
     69.5710	 2077.00	 2034.94	-1386.22	 1489.22
     69.5970	 2067.00	 2035.19	-1396.47	 1489.14
     69.6230	 2148.00	 2035.43	-1315.71	 1489.06
     69.6490	 2026.00	 2035.68	-1437.96	 1488.98
     69.6750	 2018.00	 2035.93	-1446.21	 1488.88
     69.7010	 2081.00	 2036.18	-1383.46	 1488.79
     69.7270	 2053.00	 2036.42	-1411.70	 1488.69
     69.7530	 2019.00	 2036.67	-1445.95	 1488.58
     69.7790	 2015.00	 2036.91	-1450.20	 1488.47
     69.8050	 2046.00	 2037.16	-1419.44	 1488.36
     69.8310	 2127.00	 2037.40	-1338.68	 1488.24
     69.8570	 2083.00	 2037.64	-1382.92	 1488.12
     69.8830	 2047.00	 2037.88	-1419.16	 1487.99
     69.9090	 2067.00	 2038.11	-1399.39	 1487.86
     69.9350	 2065.00	 2038.34	-1401.63	 1487.72
     69.9610	 2039.00	 2038.57	-1427.85	 1487.58
     69.9870	 2065.00	 2038.79	-1402.08	 1487.43
     70.0130	 2062.00	 2039.01	-1405.29	 1487.28
     70.0390	 2059.00	 2039.23	-1408.51	 1487.12
     70.0650	 2058.00	 2039.43	-1409.72	 1486.96
     70.0910	 2041.00	 2039.63	-1426.92	 1486.80
     70.1170	 2023.00	 2039.83	-1445.11	 1486.63
     70.1430	 2075.00	 2040.02	-1393.30	 1486.46
     70.1690	 2133.00	 2040.20	-1335.48	 1486.28
     70.1950	 2080.00	 2040.37	-1388.65	 1486.10
     70.2210	 2096.00	 2040.53	-1372.81	 1485.91
     70.2470	 2086.00	 2040.69	-1382.97	 1485.72
     70.2730	 2082.00	 2040.83	-1387.12	 1485.53
     70.2990	 2126.00	 2040.97	-1343.25	 1485.33
     70.3250	 2139.00	 2041.10	-1330.38	 1485.13
     70.3510	 2148.00	 2041.22	-1321.50	 1484.92
     70.3770	 2012.00	 2041.32	-1457.61	 1484.71
     70.4030	 2021.00	 2041.42	-1448.70	 1484.50
     70.4290	 2140.00	 2041.51	-1329.79	 1484.28
     70.4550	 2044.00	 2041.58	-1425.87	 1484.06
     70.4810	 2044.00	 2041.65	-1425.93	 1483.83
     70.5070	 2133.00	 2041.71	-1336.99	 1483.60
     70.5330	 2112.00	 2041.75	-1358.03	 1483.37
     70.5590	 2089.00	 2041.78	-1381.07	 1483.13
     70.5850	 2020.00	 2041.81	-1450.09	 1482.89
     70.6110	 2037.00	 2041.82	-1433.10	 1482.64
     70.6370	 2025.00	 2041.82	-1445.11	 1482.40
     70.6630	 1992.00	 2041.82	-1478.10	 1482.14
     70.6890	 2030.00	 2041.80	-1440.08	 1481.89
     70.7150	 2082.00	 2041.78	-1388.06	 1481.63
     70.7410	 2111.00	 2041.74	-1359.03	 1481.37
     70.7670	 2032.00	 2041.70	-1437.98	 1481.10
     70.7930	 2057.00	 2041.65	-1412.93	 1480.83
     70.8190	 2064.00	 2041.59	-1405.88	 1480.56
     70.8450	 2088.00	 2041.53	-1381.81	 1480.28
     70.8710	 2049.00	 2041.46	-1420.74	 1480.01
     70.8970	 1986.00	 2041.38	-1483.66	 1479.72
     70.9230	 2085.00	 2041.30	-1384.58	 1479.44
     70.9490	 2043.00	 2041.22	-1426.50	 1479.15
     70.9750	 2120.00	 2041.13	-1349.41	 1478.86
     71.0010	 2091.00	 2041.03	-1378.32	 1478.57
     71.0270	 2082.00	 2040.94	-1387.22	 1478.27
     71.0530	 2044.00	 2040.85	-1425.13	 1477.97
     71.0790	 2102.00	 2040.75	-1367.03	 1477.67
     71.1050	 2066.00	 2040.65	-1402.94	 1477.36
     71.1310	 2068.00	 2040.56	-1400.84	 1477.06
     71.1570	 2053.00	 2040.47	-1415.75	 1476.75
     71.1830	 2035.00	 2040.38	-1433.66	 1476.44
     71.2090	 2117.00	 2040.29	-1351.57	 1476.12
     71.2350	 2075.00	 2040.21	-1393.49	 1475.81
     71.2610	 2030.00	 2040.13	-1438.41	 1475.49
     71.2870	 2047.00	 2040.06	-1421.34	 1475.17
     71.3130	 2037.00	 2039.99	-1431.27	 1474.84
     71.3390	 2038.00	 2039.93	-1430.22	 1474.52
     71.3650	 2058.00	 2039.88	-1410.17	 1474.19
     71.3910	 1952.00	 2039.84	-1516.13	 1473.86
     71.4170	 1963.00	 2039.81	-1505.09	 1473.53
     71.4430	 2039.00	 2039.79	-1429.07	 1473.20
     71.4690	 2042.00	 2039.78	-1426.06	 1472.86
     71.4950	 2000.00	 2039.78	-1468.07	 1472.53
     71.5210	 2078.00	 2039.80	-1390.08	 1472.19
     71.5470	 2048.00	 2039.83	-1420.11	 1471.85
     71.5730	 1966.00	 2039.87	-1502.15	 1471.51
     71.5990	 2004.00	 2039.92	-1464.21	 1471.17
     71.6250	 2054.00	 2040.00	-1414.28	 1470.82
     71.6510	 2065.00	 2040.08	-1403.37	 1470.48
     71.6770	 2085.00	 2040.19	-1383.47	 1470.13
     71.7030	 2101.00	 2040.30	-1367.59	 1469.79
     71.7290	 2082.00	 2040.44	-1386.72	 1469.44
     71.7550	 2076.00	 2040.61	-1392.89	 1469.09
     71.7810	 2016.00	 2040.78	-1453.06	 1468.74
     71.8070	 1975.00	 2040.97	-1494.25	 1468.39
     71.8330	 1974.00	 2041.18	-1495.46	 1468.04
     71.8590	 1977.00	 2041.41	-1492.69	 1467.69
     71.8850	 1982.00	 2041.66	-1487.94	 1467.34
     71.9110	 1975.00	 2041.93	-1495.21	 1466.99
     71.9370	 2030.00	 2042.22	-1440.50	 1466.64
     71.9630	 2007.00	 2042.53	-1463.81	 1466.29
     71.9890	 1953.00	 2042.86	-1518.15	 1465.94
     72.0150	 1987.00	 2043.22	-1484.50	 1465.58
     72.0410	 2014.00	 2043.59	-1457.87	 1465.23
     72.0670	 2033.00	 2043.99	-1439.27	 1464.88
     72.0930	 2002.00	 2044.40	-1470.69	 1464.53
     72.1190	 2019.00	 2044.84	-1454.13	 1464.18
     72.1450	 2005.00	 2045.31	-1468.59	 1463.83
     72.1710	 1987.00	 2045.79	-1487.07	 1463.48
     72.1970	 2077.00	 2046.29	-1397.58	 1463.13
     72.2230	 2051.00	 2046.82	-1424.10	 1462.78
     72.2490	 1988.00	 2047.37	-1487.65	 1462.43
     72.2750	 1982.00	 2047.94	-1494.22	 1462.08
     72.3010	 1969.00	 2048.53	-1507.82	 1461.73
     72.3270	 1964.00	 2049.15	-1513.43	 1461.39
     72.3530	 1961.00	 2049.78	-1517.07	 1461.04
     72.3790	 2006.00	 2050.44	-1472.72	 1460.70
     72.4050	 1974.00	 2051.12	-1505.40	 1460.36
     72.4310	 2001.00	 2051.81	-1479.10	 1460.02
     72.4570	 1983.00	 2052.53	-1497.81	 1459.68
     72.4830	 2025.00	 2053.27	-1456.55	 1459.34
     72.5090	 2019.00	 2054.02	-1463.31	 1459.01
     72.5350	 2071.00	 2054.80	-1412.08	 1458.67
     72.5610	 1977.00	 2055.59	-1506.88	 1458.34
     72.5870	 2028.00	 2056.40	-1456.68	 1458.01
     72.6130	 1973.00	 2057.23	-1512.51	 1457.68
     72.6390	 1918.00	 2058.07	-1568.36	 1457.36
     72.6650	 1965.00	 2058.93	-1522.21	 1457.04
     72.6910	 1989.00	 2059.80	-1499.09	 1456.71
     72.7170	 1962.00	 2060.69	-1526.97	 1456.40
     72.7430	 2034.00	 2061.59	-1455.87	 1456.08
     72.7690	 1965.00	 2062.50	-1525.78	 1455.77
     72.7950	 1961.00	 2063.42	-1530.70	 1455.46
     72.8210	 2001.00	 2064.35	-1491.64	 1455.15
     72.8470	 2022.00	 2065.30	-1471.58	 1454.84
     72.8730	 1987.00	 2066.24	-1507.53	 1454.54
     72.8990	 1956.00	 2067.20	-1539.48	 1454.24
     72.9250	 2028.00	 2068.16	-1468.44	 1453.95
     72.9510	 1985.00	 2069.13	-1512.41	 1453.66
     72.9770	 1988.00	 2070.10	-1510.38	 1453.37
     73.0030	 2013.00	 2071.07	-1486.35	 1453.08
     73.0290	 1994.00	 2072.04	-1506.32	 1452.80
     73.0550	 1929.00	 2073.01	-1572.30	 1452.52
     73.0810	 2000.00	 2073.99	-1502.27	 1452.25
     73.1070	 2050.00	 2074.96	-1453.24	 1451.98
     73.1330	 2069.00	 2075.92	-1435.21	 1451.71
     73.1590	 1995.00	 2076.89	-1510.17	 1451.45
     73.1850	 1946.00	 2077.85	-1560.13	 1451.19
     73.2110	 2059.00	 2078.80	-1448.08	 1450.94
     73.2370	 2075.00	 2079.75	-1433.03	 1450.69
     73.2630	 2007.00	 2080.69	-1501.97	 1450.45
     73.2890	 2018.00	 2081.62	-1491.91	 1450.21
     73.3150	 1974.00	 2082.55	-1536.83	 1449.97
     73.3410	 2042.00	 2083.47	-1469.75	 1449.74
     73.3670	 2013.00	 2084.38	-1499.66	 1449.51
     73.3930	 2013.00	 2085.28	-1500.56	 1449.29
     73.4190	 1990.00	 2086.18	-1524.46	 1449.08
     73.4450	 2029.00	 2087.06	-1486.35	 1448.87
     73.4710	 2013.00	 2087.95	-1503.23	 1448.66
     73.4970	 2039.00	 2088.82	-1478.11	 1448.46
     73.5230	 2051.00	 2089.70	-1466.98	 1448.27
     73.5490	 2018.00	 2090.57	-1500.85	 1448.08
     73.5750	 1951.00	 2091.44	-1568.72	 1447.89
     73.6010	 2033.00	 2092.31	-1487.59	 1447.72
     73.6270	 1987.00	 2093.18	-1534.46	 1447.54
     73.6530	 2059.00	 2094.06	-1463.35	 1447.38
     73.6790	 2010.00	 2094.96	-1513.24	 1447.22
     73.7050	 2079.00	 2095.86	-1445.15	 1447.06
     73.7310	 2003.00	 2096.79	-1522.07	 1446.92
     73.7570	 2013.00	 2097.74	-1513.02	 1446.77
     73.7830	 2041.00	 2098.72	-1486.00	 1446.64
     73.8090	 2010.00	 2099.73	-1518.02	 1446.51
     73.8350	 2073.00	 2100.79	-1456.07	 1446.39
     73.8610	 2081.00	 2101.90	-1449.18	 1446.27
     73.8870	 2103.00	 2103.07	-1428.35	 1446.16
     73.9130	 2043.00	 2104.31	-1489.59	 1446.06
     73.9390	 2030.00	 2105.62	-1503.91	 1445.96
     73.9650	 2085.00	 2107.04	-1450.32	 1445.87
     73.9910	 2154.00	 2108.56	-1382.84	 1445.79
     74.0170	 2090.00	 2110.19	-1448.48	 1445.71
     74.0430	 2107.00	 2111.97	-1433.26	 1445.64
     74.0690	 2091.00	 2113.91	-1451.19	 1445.58
     74.0950	 2072.00	 2116.02	-1472.30	 1445.53
     74.1210	 2046.00	 2118.32	-1500.61	 1445.48
     74.1470	 2103.00	 2120.85	-1446.14	 1445.44
     74.1730	 2187.00	 2123.63	-1364.91	 1445.41
     74.1990	 2176.00	 2126.68	-1378.96	 1445.39
     74.2250	 2120.00	 2130.02	-1438.31	 1445.37
     74.2510	 2129.00	 2133.70	-1432.98	 1445.36
     74.2770	 2161.00	 2137.73	-1405.01	 1445.36
     74.3030	 2223.00	 2142.14	-1347.42	 1445.37
     74.3290	 2178.00	 2146.94	-1397.23	 1445.38
     74.3550	 2114.00	 2152.16	-1466.44	 1445.40
     74.3810	 2125.00	 2157.79	-1461.07	 1445.43
     74.4070	 2182.00	 2163.80	-1410.09	 1445.47
     74.4330	 2216.00	 2170.17	-1382.46	 1445.52
     74.4590	 2239.00	 2176.83	-1366.12	 1445.57
     74.4850	 2271.00	 2183.67	-1340.96	 1445.63
     74.5110	 2229.00	 2190.56	-1389.84	 1445.70
     74.5370	 2170.00	 2197.31	-1455.60	 1445.78
     74.5630	 2154.00	 2203.72	-1478.01	 1445.87
     74.5890	 2179.00	 2209.56	-1458.84	 1445.96
     74.6150	 2181.00	 2214.58	-1461.86	 1446.06
     74.6410	 2172.00	 2218.57	-1474.86	 1446.18
     74.6670	 2202.00	 2221.38	-1447.66	 1446.30
     74.6930	 2215.00	 2222.88	-1436.16	 1446.43
     74.7190	 2223.00	 2223.05	-1428.33	 1446.56
     74.7450	 2265.00	 2221.90	-1385.19	 1446.71
     74.7710	 2261.00	 2219.52	-1386.80	 1446.86
     74.7970	 2262.00	 2216.01	-1382.30	 1447.02
     74.8230	 2207.00	 2211.49	-1432.78	 1447.20
     74.8490	 2127.00	 2206.08	-1507.37	 1447.38
     74.8750	 2140.00	 2199.90	-1488.19	 1447.56
     74.9010	 2185.00	 2193.07	-1436.35	 1447.76
     74.9270	 2196.00	 2185.71	-1417.99	 1447.97
     74.9530	 2208.00	 2177.95	-1398.23	 1448.18
     74.9790	 2178.00	 2169.93	-1420.21	 1448.40
     75.0050	 2234.00	 2161.79	-1356.08	 1448.64
     75.0310	 2216.00	 2153.67	-1365.95	 1448.88
     75.0570	 2184.00	 2145.67	-1389.95	 1449.13
     75.0830	 2193.00	 2137.89	-1373.17	 1449.38
     75.1090	 2140.00	 2130.40	-1418.69	 1449.65
     75.1350	 2173.00	 2123.27	-1378.55	 1449.92
     75.1610	 2140.00	 2116.51	-1404.79	 1450.21
     75.1870	 2112.00	 2110.14	-1426.42	 1450.50
     75.2130	 2145.00	 2104.17	-1387.45	 1450.80
     75.2390	 2200.00	 2098.59	-1326.87	 1451.11
     75.2650	 2140.00	 2093.38	-1381.66	 1451.43
     75.2910	 2140.00	 2088.52	-1376.81	 1451.75
     75.3170	 2088.00	 2084.00	-1424.28	 1452.09
     75.3430	 2101.00	 2079.78	-1407.07	 1452.43
     75.3690	 2090.00	 2075.86	-1414.14	 1452.78
     75.3950	 2087.00	 2072.20	-1413.48	 1453.14
     75.4210	 2092.00	 2068.78	-1405.06	 1453.51
     75.4470	 2131.00	 2065.60	-1362.88	 1453.89
     75.4730	 2056.00	 2062.61	-1434.89	 1454.27
     75.4990	 2125.00	 2059.82	-1363.10	 1454.66
     75.5250	 2082.00	 2057.20	-1403.48	 1455.06
     75.5510	 2043.00	 2054.75	-1440.03	 1455.47
     75.5770	 2101.00	 2052.44	-1379.72	 1455.89
     75.6030	 2005.00	 2050.27	-1473.55	 1456.31
     75.6290	 2065.00	 2048.23	-1411.51	 1456.74
     75.6550	 2053.00	 2046.31	-1421.59	 1457.18
     75.6810	 2017.00	 2044.50	-1455.78	 1457.63
     75.7070	 2059.00	 2042.79	-1412.07	 1458.09
     75.7330	 2066.00	 2041.18	-1403.46	 1458.55
     75.7590	 2138.00	 2039.66	-1329.94	 1459.02
     75.7850	 2072.00	 2038.22	-1394.50	 1459.49
     75.8110	 2000.00	 2036.86	-1465.15	 1459.98
     75.8370	 2126.00	 2035.58	-1337.87	 1460.47
     75.8630	 2116.00	 2034.37	-1346.65	 1460.96
     75.8890	 2159.00	 2033.23	-1302.51	 1461.47
     75.9150	 2044.00	 2032.15	-1416.43	 1461.98
     75.9410	 2044.00	 2031.13	-1415.41	 1462.50
     75.9670	 2043.00	 2030.17	-1415.45	 1463.02
     75.9930	 2052.00	 2029.27	-1405.55	 1463.55
     76.0190	 2010.00	 2028.42	-1446.70	 1464.08
     76.0450	 2040.00	 2027.62	-1415.90	 1464.62
     76.0710	 1986.00	 2026.86	-1469.15	 1465.17
     76.0970	 2048.00	 2026.16	-1406.44	 1465.72
     76.1230	 2029.00	 2025.50	-1424.78	 1466.28
     76.1490	 2113.00	 2024.88	-1340.17	 1466.84
     76.1750	 2070.00	 2024.31	-1382.59	 1467.41
     76.2010	 2031.00	 2023.78	-1421.06	 1467.98
     76.2270	 2045.00	 2023.28	-1406.56	 1468.56
     76.2530	 1968.00	 2022.83	-1483.11	 1469.14
     76.2790	 2065.00	 2022.41	-1385.69	 1469.72
     76.3050	 2002.00	 2022.02	-1448.30	 1470.31
     76.3310	 2096.00	 2021.67	-1353.95	 1470.90
     76.3570	 2089.00	 2021.36	-1360.64	 1471.50
     76.3830	 2143.00	 2021.07	-1306.35	 1472.10
     76.4090	 2091.00	 2020.82	-1358.10	 1472.70
     76.4350	 2044.00	 2020.60	-1404.88	 1473.31
     76.4610	 2054.00	 2020.41	-1394.69	 1473.91
     76.4870	 2087.00	 2020.24	-1361.52	 1474.52
     76.5130	 2042.00	 2020.11	-1406.39	 1475.13
     76.5390	 2076.00	 2020.00	-1372.28	 1475.75
     76.5650	 2025.00	 2019.92	-1423.20	 1476.36
     76.5910	 2034.00	 2019.86	-1414.14	 1476.98
     76.6170	 1997.00	 2019.83	-1451.11	 1477.59
     76.6430	 2020.00	 2019.83	-1428.11	 1478.21
     76.6690	 2083.00	 2019.84	-1365.13	 1478.83
     76.6950	 2072.00	 2019.88	-1376.17	 1479.44
     76.7210	 2045.00	 2019.95	-1403.23	 1480.06
     76.7470	 2118.00	 2020.03	-1330.32	 1480.68
     76.7730	 2072.00	 2020.14	-1376.42	 1481.29
     76.7990	 2060.00	 2020.27	-1388.55	 1481.90
     76.8250	 2060.00	 2020.42	-1388.70	 1482.51
     76.8510	 2050.00	 2020.58	-1398.87	 1483.12
     76.8770	 2062.00	 2020.77	-1387.05	 1483.73
     76.9030	 2058.00	 2020.98	-1391.26	 1484.33
     76.9290	 2061.00	 2021.20	-1388.48	 1484.93
     76.9550	 2057.00	 2021.44	-1392.73	 1485.52
     76.9810	 2083.00	 2021.70	-1366.99	 1486.12
     77.0070	 2089.00	 2021.98	-1361.26	 1486.70
     77.0330	 2020.00	 2022.27	-1430.56	 1487.28
     77.0590	 2032.00	 2022.58	-1418.87	 1487.86
     77.0850	 2075.00	 2022.91	-1376.19	 1488.43
     77.1110	 2057.00	 2023.25	-1394.53	 1488.99
     77.1370	 2076.00	 2023.61	-1375.89	 1489.55
     77.1630	 2076.00	 2023.98	-1376.26	 1490.10
     77.1890	 2050.00	 2024.37	-1402.65	 1490.64
     77.2150	 2093.00	 2024.77	-1360.05	 1491.18
     77.2410	 2102.00	 2025.19	-1351.47	 1491.70
     77.2670	 2060.00	 2025.62	-1393.90	 1492.21
     77.2930	 2071.00	 2026.07	-1383.35	 1492.72
     77.3190	 2057.00	 2026.53	-1397.81	 1493.21
     77.3450	 2036.00	 2027.00	-1419.29	 1493.70
     77.3710	 2076.00	 2027.50	-1379.78	 1494.17
     77.3970	 2074.00	 2028.00	-1382.29	 1494.63
     77.4230	 2041.00	 2028.53	-1415.81	 1495.08
     77.4490	 2038.00	 2029.07	-1419.35	 1495.51
     77.4750	 2068.00	 2029.62	-1389.91	 1495.93
     77.5010	 2070.00	 2030.20	-1388.48	 1496.34
     77.5270	 2079.00	 2030.79	-1380.07	 1496.73
     77.5530	 2059.00	 2031.40	-1400.69	 1497.10
     77.5790	 2051.00	 2032.04	-1409.32	 1497.46
     77.6050	 2046.00	 2032.69	-1414.98	 1497.80
     77.6310	 2102.00	 2033.37	-1359.66	 1498.13
     77.6570	 2042.00	 2034.08	-1420.36	 1498.43
     77.6830	 2068.00	 2034.82	-1395.10	 1498.72
     77.7090	 2049.00	 2035.58	-1414.87	 1498.99
     77.7350	 2096.00	 2036.38	-1368.67	 1499.23
     77.7610	 2065.00	 2037.22	-1400.51	 1499.46
     77.7870	 2028.00	 2038.10	-1438.39	 1499.66
     77.8130	 2006.00	 2039.03	-1461.31	 1499.84
     77.8390	 2051.00	 2040.01	-1417.29	 1500.00
     77.8650	 2053.00	 2041.04	-1416.32	 1500.14
     77.8910	 1997.00	 2042.14	-1473.42	 1500.24
     77.9170	 2022.00	 2043.30	-1449.59	 1500.33
     77.9430	 2039.00	 2044.55	-1433.83	 1500.38
     77.9690	 2097.00	 2045.88	-1377.16	 1500.41
     77.9950	 2033.00	 2047.31	-1442.59	 1500.41
     78.0210	 2124.00	 2048.85	-1353.13	 1500.38
     78.0470	 2005.00	 2050.51	-1473.79	 1500.32
     78.0730	 2041.00	 2052.30	-1439.58	 1500.23
     78.0990	 2032.00	 2054.23	-1450.52	 1500.11
     78.1250	 2038.00	 2056.33	-1446.62	 1499.95
     78.1510	 2064.00	 2058.61	-1422.89	 1499.77
     78.1770	 2036.00	 2061.08	-1453.36	 1499.54
     78.2030	 2015.00	 2063.76	-1477.04	 1499.29
     78.2290	 2078.00	 2066.66	-1416.94	 1498.99
     78.2550	 2011.00	 2069.78	-1487.07	 1498.66
     78.2810	 2065.00	 2073.15	-1436.43	 1498.29
     78.3070	 1982.00	 2076.75	-1523.04	 1497.88
     78.3330	 2115.00	 2080.58	-1393.86	 1497.43
     78.3590	 2056.00	 2084.61	-1456.90	 1496.93
     78.3850	 2075.00	 2088.81	-1442.09	 1496.40
     78.4110	 2076.00	 2093.10	-1445.38	 1495.82
     78.4370	 2160.00	 2097.41	-1365.70	 1495.20
     78.4630	 2032.00	 2101.64	-1497.92	 1494.53
     78.4890	 2056.00	 2105.65	-1477.93	 1493.81
     78.5150	 2042.00	 2109.30	-1495.58	 1493.04
     78.5410	 2049.00	 2112.44	-1491.73	 1492.23
     78.5670	 2080.00	 2114.94	-1463.22	 1491.36
     78.5930	 2017.00	 2116.66	-1527.95	 1490.45
     78.6190	 2060.00	 2117.53	-1485.82	 1489.48
     78.6450	 2073.00	 2117.51	-1472.79	 1488.45
     78.6710	 1948.00	 2116.58	-1596.87	 1487.37
     78.6970	 2051.00	 2114.80	-1492.08	 1486.24
     78.7230	 2061.00	 2112.21	-1479.49	 1485.04
     78.7490	 2048.00	 2108.88	-1489.16	 1483.79
     78.7750	 2032.00	 2104.88	-1501.17	 1482.48
     78.8010	 2050.00	 2100.29	-1478.58	 1481.10
     78.8270	 1972.00	 2095.18	-1551.46	 1479.66
     78.8530	 2049.00	 2089.60	-1468.88	 1478.16
     78.8790	 2058.00	 2083.62	-1453.90	 1476.59
     78.9050	 2090.00	 2077.32	-1415.60	 1474.95
     78.9310	 2049.00	 2070.77	-1450.06	 1473.24
     78.9570	 1999.00	 2064.06	-1493.34	 1471.47
     78.9830	 2009.00	 2057.26	-1476.55	 1469.62
     79.0090	 2063.00	 2050.45	-1415.73	 1467.69
     79.0350	 2025.00	 2043.68	-1446.96	 1465.70
     79.0610	 1996.00	 2036.99	-1469.28	 1463.62
     79.0870	 1986.00	 2030.44	-1472.73	 1461.47
     79.1130	 2075.00	 2024.04	-1377.32	 1459.24
     79.1390	 2098.00	 2017.79	-1348.07	 1456.93
     79.1650	 2001.00	 2011.70	-1438.98	 1454.53
     79.1910	 2028.00	 2005.77	-1406.05	 1452.05
     79.2170	 2020.00	 1999.99	-1408.27	 1449.49
     79.2430	 1982.00	 1994.35	-1440.63	 1446.83
     79.2690	 1988.00	 1988.82	-1429.10	 1444.09
     79.2950	 1993.00	 1983.40	-1418.69	 1441.26
     79.3210	 2025.00	 1978.08	-1381.36	 1438.33
     79.3470	 1948.00	 1972.82	-1453.10	 1435.31
     79.3730	 1929.00	 1967.63	-1466.91	 1432.19
     79.3990	 1948.00	 1962.47	-1442.76	 1428.97
     79.4250	 1908.00	 1957.35	-1477.63	 1425.66
     79.4510	 1935.00	 1952.25	-1445.53	 1422.24
     79.4770	 1974.00	 1947.15	-1401.43	 1418.71
     79.5030	 1929.00	 1942.05	-1441.33	 1415.08
     79.5290	 1919.00	 1936.93	-1446.21	 1411.35
     79.5550	 1946.00	 1931.78	-1414.06	 1407.50
     79.5810	 1901.00	 1926.60	-1453.88	 1403.54
     79.6070	 1903.00	 1921.37	-1446.66	 1399.47
     79.6330	 1917.00	 1916.10	-1427.38	 1395.28
     79.6590	 1914.00	 1910.76	-1425.05	 1390.98
     79.6850	 1968.00	 1905.36	-1365.65	 1386.55
     79.7110	 1990.00	 1899.90	-1338.18	 1382.00
     79.7370	 1938.00	 1894.35	-1384.63	 1377.33
     79.7630	 1889.00	 1888.72	-1428.00	 1372.53
     79.7890	 1920.00	 1883.00	-1391.28	 1367.61
     79.8150	 1928.00	 1877.19	-1377.47	 1362.55
     79.8410	 1892.00	 1871.28	-1407.56	 1357.36
     79.8670	 1909.00	 1865.27	-1384.55	 1352.03
