 AH11    CELL:    8.39442   8.39442   8.39442   90.0000   90.0000   90.0000   SPGR: F d -3 m               TEMP:      0.00
  1   2495     1.54056     1.54443     0.00000     0.00000     0.00000    0
    32     0     0
 2Theta	Yobs	Ycal	Yobs-Ycal	Backg	Posr	(hkl)	K
     15.0230	 2614.00	 2677.38	-1338.38	 2339.11
     15.0490	 2693.00	 2674.22	-1256.22	 2335.66
     15.0750	 2689.00	 2671.25	-1257.25	 2332.39
     15.1010	 2630.00	 2668.47	-1313.47	 2329.32
     15.1270	 2704.00	 2665.92	-1236.92	 2326.43
     15.1530	 2679.00	 2663.52	-1259.52	 2323.71
     15.1790	 2604.00	 2661.31	-1332.31	 2321.18
     15.2050	 2722.00	 2659.28	-1212.28	 2318.83
     15.2310	 2679.00	 2657.44	-1253.44	 2316.64
     15.2570	 2696.00	 2655.77	-1234.77	 2314.63
     15.2830	 2660.00	 2654.27	-1269.27	 2312.78
     15.3090	 2715.00	 2652.95	-1212.95	 2311.10
     15.3350	 2649.00	 2651.80	-1277.80	 2309.59
     15.3610	 2737.00	 2650.82	-1188.82	 2308.23
     15.3870	 2628.00	 2650.01	-1297.01	 2307.03
     15.4130	 2614.00	 2649.36	-1310.36	 2305.98
     15.4390	 2686.00	 2648.87	-1237.87	 2305.09
     15.4650	 2622.00	 2648.54	-1301.54	 2304.34
     15.4910	 2557.00	 2648.36	-1366.36	 2303.75
     15.5170	 2668.00	 2648.34	-1255.34	 2303.29
     15.5430	 2630.00	 2648.48	-1293.48	 2302.98
     15.5690	 2600.00	 2648.77	-1323.77	 2302.81
     15.5950	 2649.00	 2649.20	-1275.20	 2302.78
     15.6210	 2625.00	 2649.78	-1299.78	 2302.89
     15.6470	 2647.00	 2650.51	-1278.51	 2303.12
     15.6730	 2662.00	 2651.38	-1264.38	 2303.49
     15.6990	 2657.00	 2652.39	-1270.39	 2303.98
     15.7250	 2639.00	 2653.55	-1289.55	 2304.60
     15.7510	 2698.00	 2654.84	-1231.84	 2305.35
     15.7770	 2695.00	 2656.26	-1236.26	 2306.21
     15.8030	 2626.00	 2657.83	-1306.83	 2307.20
     15.8290	 2589.00	 2659.52	-1345.52	 2308.30
     15.8550	 2653.00	 2661.34	-1283.34	 2309.52
     15.8810	 2611.00	 2663.30	-1327.30	 2310.85
     15.9070	 2578.00	 2665.39	-1362.39	 2312.29
     15.9330	 2556.00	 2667.60	-1386.60	 2313.84
     15.9590	 2709.00	 2669.93	-1235.93	 2315.50
     15.9850	 2744.00	 2672.40	-1203.40	 2317.27
     16.0110	 2716.00	 2674.98	-1233.98	 2319.13
     16.0370	 2665.00	 2677.69	-1287.69	 2321.10
     16.0630	 2727.00	 2680.52	-1228.52	 2323.16
     16.0890	 2687.00	 2683.46	-1271.46	 2325.33
     16.1150	 2738.00	 2686.53	-1223.53	 2327.59
     16.1410	 2709.00	 2689.72	-1255.72	 2329.94
     16.1670	 2738.00	 2693.02	-1230.02	 2332.38
     16.1930	 2678.00	 2696.44	-1293.44	 2334.91
     16.2190	 2711.00	 2699.97	-1263.97	 2337.53
     16.2450	 2634.00	 2703.62	-1344.62	 2340.24
     16.2710	 2690.00	 2707.38	-1292.38	 2343.03
     16.2970	 2766.00	 2711.26	-1220.26	 2345.91
     16.3230	 2770.00	 2715.25	-1220.25	 2348.86
     16.3490	 2768.00	 2719.36	-1226.36	 2351.89
     16.3750	 2773.00	 2723.57	-1225.57	 2355.00
     16.4010	 2674.00	 2727.90	-1328.90	 2358.19
     16.4270	 2712.00	 2732.34	-1295.34	 2361.45
     16.4530	 2771.00	 2736.90	-1240.90	 2364.78
     16.4790	 2677.00	 2741.57	-1339.57	 2368.19
     16.5050	 2639.00	 2746.35	-1382.35	 2371.66
     16.5310	 2746.00	 2751.24	-1280.24	 2375.20
     16.5570	 2762.00	 2756.25	-1269.25	 2378.81
     16.5830	 2678.00	 2761.37	-1358.37	 2382.48
     16.6090	 2700.00	 2766.61	-1341.61	 2386.21
     16.6350	 2780.00	 2771.97	-1266.97	 2390.01
     16.6610	 2786.00	 2777.44	-1266.44	 2393.86
     16.6870	 2798.00	 2783.03	-1260.03	 2397.78
     16.7130	 2816.00	 2788.74	-1247.74	 2401.75
     16.7390	 2840.00	 2794.57	-1229.57	 2405.78
     16.7650	 2801.00	 2800.52	-1274.52	 2409.86
     16.7910	 2776.00	 2806.60	-1305.60	 2413.99
     16.8170	 2845.00	 2812.81	-1242.81	 2418.18
     16.8430	 2875.00	 2819.14	-1219.14	 2422.41
     16.8690	 2853.00	 2825.60	-1247.60	 2426.70
     16.8950	 2839.00	 2832.20	-1268.20	 2431.03
     16.9210	 2833.00	 2838.94	-1280.94	 2435.41
     16.9470	 2833.00	 2845.81	-1287.81	 2439.83
     16.9730	 2915.00	 2852.83	-1212.83	 2444.30
     16.9990	 2961.00	 2859.99	-1173.99	 2448.81
     17.0250	 2921.00	 2867.30	-1221.30	 2453.36
     17.0510	 2877.00	 2874.76	-1272.76	 2457.95
     17.0770	 2849.00	 2882.38	-1308.38	 2462.58
     17.1030	 2852.00	 2890.16	-1313.16	 2467.24
     17.1290	 2819.00	 2898.11	-1354.11	 2471.94
     17.1550	 2894.00	 2906.23	-1287.23	 2476.68
     17.1810	 2906.00	 2914.52	-1283.52	 2481.45
     17.2070	 2922.00	 2922.99	-1275.99	 2486.25
     17.2330	 2913.00	 2931.65	-1293.65	 2491.09
     17.2590	 2894.00	 2940.49	-1321.49	 2495.95
     17.2850	 2906.00	 2949.53	-1318.53	 2500.85
     17.3110	 2967.00	 2958.78	-1266.78	 2505.77
     17.3370	 2951.00	 2968.22	-1292.22	 2510.72
     17.3630	 2949.00	 2977.88	-1303.88	 2515.70
     17.3890	 3055.00	 2987.76	-1207.76	 2520.70
     17.4150	 2976.00	 2997.85	-1296.85	 2525.73
     17.4410	 3094.00	 3008.18	-1189.18	 2530.78
     17.4670	 3035.00	 3018.73	-1258.73	 2535.85
     17.4930	 3050.00	 3029.51	-1254.51	 2540.94
     17.5190	 3112.00	 3040.53	-1203.53	 2546.05
     17.5450	 3044.00	 3051.79	-1282.79	 2551.19
     17.5710	 3030.00	 3063.29	-1308.29	 2556.34
     17.5970	 3018.00	 3075.02	-1332.02	 2561.50
     17.6230	 3089.00	 3086.98	-1272.98	 2566.69
     17.6490	 3027.00	 3099.18	-1347.18	 2571.89
     17.6750	 3088.00	 3111.60	-1298.60	 2577.10
     17.7010	 3037.00	 3124.23	-1362.23	 2582.33
     17.7270	 3091.00	 3137.05	-1321.05	 2587.57
     17.7530	 3060.00	 3150.07	-1365.07	 2592.82
     17.7790	 3149.00	 3163.24	-1289.24	 2598.09
     17.8050	 3177.00	 3176.55	-1274.55	 2603.36
     17.8310	 3217.00	 3189.97	-1247.97	 2608.64
     17.8570	 3242.00	 3203.46	-1236.46	 2613.94
     17.8830	 3263.00	 3216.99	-1228.99	 2619.24
     17.9090	 3249.00	 3230.51	-1256.51	 2624.54
     17.9350	 3270.00	 3243.97	-1248.97	 2629.86
     17.9610	 3292.00	 3257.31	-1240.31	 2635.18
     17.9870	 3336.00	 3270.48	-1209.48	 2640.50
     18.0130	 3260.00	 3283.41	-1298.41	 2645.83
     18.0390	 3282.00	 3296.03	-1289.03	 2651.16
     18.0650	 3266.00	 3308.27	-1317.27	 2656.49
     18.0910	 3407.00	 3320.07	-1188.07	 2661.83
     18.1170	 3348.00	 3331.34	-1258.34	 2667.16
     18.1430	 3347.00	 3342.03	-1270.03	 2672.50
     18.1690	 3436.00	 3352.06	-1191.06	 2677.84
     18.1950	 3392.00	 3361.38	-1244.38	 2683.18
     18.2210	 3369.00	 3369.92	-1275.92	 2688.51
     18.2470	 3448.00	 3377.65	-1204.65	 2693.84
     18.2730	 3558.00	 3384.54	-1101.54	 2699.17
     18.2990	 3464.00	 3390.56	-1201.56	 2704.50
     18.3250	 3515.00	 3395.69	-1155.69	 2709.82
     18.3510	 3440.00	 3399.95	-1234.95	 2715.14
     18.3770	 3466.00	 3403.35	-1212.35	 2720.45
     18.4030	 3463.00	 3405.92	-1217.92	 2725.76
     18.4290	 3449.00	 3407.69	-1233.69	 2731.06
     18.4550	 3417.00	 3408.71	-1266.71	 2736.35
     18.4810	 3344.00	 3409.03	-1340.03	 2741.64
     18.5070	 3444.00	 3408.73	-1239.73	 2746.92
     18.5330	 3324.00	 3407.86	-1358.86	 2752.19
     18.5590	 3446.00	 3406.50	-1235.50	 2757.44
     18.5850	 3359.00	 3404.71	-1320.71	 2762.70
     18.6110	 3412.00	 3402.56	-1265.56	 2767.94
     18.6370	 3484.00	 3400.13	-1191.13	 2773.16
     18.6630	 3377.00	 3397.48	-1295.48	 2778.38
     18.6890	 3435.00	 3394.66	-1234.66	 2783.59
     18.7150	 3436.00	 3391.74	-1230.74	 2788.78
     18.7410	 3427.00	 3388.77	-1236.77	 2793.96
     18.7670	 3334.00	 3385.79	-1326.79	 2799.13
     18.7930	 3362.00	 3382.84	-1295.84	 2804.29
     18.8190	 3373.00	 3379.96	-1281.96	 2809.43
     18.8450	 3328.00	 3377.18	-1324.18	 2814.55
     18.8710	 3308.00	 3374.53	-1341.53	 2819.66
     18.8970	 3306.00	 3372.02	-1341.02	 2824.76
     18.9230	 3380.00	 3369.68	-1264.68	 2829.84
     18.9490	 3390.00	 3367.51	-1252.51	 2834.90
     18.9750	 3311.00	 3365.52	-1329.52	 2839.95
     19.0010	 3313.00	 3363.74	-1325.74	 2844.98
     19.0270	 3317.00	 3362.14	-1320.14	 2849.99
     19.0530	 3339.00	 3360.76	-1296.76	 2854.99
     19.0790	 3314.00	 3359.57	-1320.57	 2859.97
     19.1050	 3319.00	 3358.58	-1314.58	 2864.93
     19.1310	 3333.00	 3357.79	-1299.79	 2869.87
     19.1570	 3305.00	 3357.20	-1327.20	 2874.79
     19.1830	 3377.00	 3356.80	-1254.80	 2879.69
     19.2090	 3421.00	 3356.58	-1210.58	 2884.57
     19.2350	 3353.00	 3356.54	-1278.54	 2889.43
     19.2610	 3292.00	 3356.67	-1339.67	 2894.27
     19.2870	 3333.00	 3356.97	-1298.97	 2899.09
     19.3130	 3320.00	 3357.44	-1312.44	 2903.89
     19.3390	 3288.00	 3358.05	-1345.05	 2908.66
     19.3650	 3294.00	 3358.82	-1339.82	 2913.42
     19.3910	 3309.00	 3359.72	-1325.72	 2918.15
     19.4170	 3344.00	 3360.76	-1291.76	 2922.86
     19.4430	 3294.00	 3361.93	-1342.93	 2927.55
     19.4690	 3276.00	 3363.22	-1362.22	 2932.21
     19.4950	 3384.00	 3364.62	-1255.62	 2936.85
     19.5210	 3393.00	 3366.13	-1248.13	 2941.47
     19.5470	 3301.00	 3367.74	-1341.74	 2946.06
     19.5730	 3228.00	 3369.46	-1416.46	 2950.63
     19.5990	 3245.00	 3371.26	-1401.26	 2955.18
     19.6250	 3355.00	 3373.15	-1293.15	 2959.70
     19.6510	 3411.00	 3375.12	-1239.12	 2964.20
     19.6770	 3439.00	 3377.16	-1213.16	 2968.67
     19.7030	 3367.00	 3379.28	-1287.28	 2973.12
     19.7290	 3314.00	 3381.46	-1342.46	 2977.54
     19.7550	 3417.00	 3383.71	-1241.71	 2981.93
     19.7810	 3431.00	 3386.02	-1230.02	 2986.30
     19.8070	 3431.00	 3388.38	-1232.38	 2990.65
     19.8330	 3385.00	 3390.79	-1280.79	 2994.96
     19.8590	 3346.00	 3393.25	-1322.25	 2999.25
     19.8850	 3384.00	 3395.75	-1286.75	 3003.52
     19.9110	 3329.00	 3398.29	-1344.29	 3007.76
     19.9370	 3311.00	 3400.87	-1364.87	 3011.97
     19.9630	 3366.00	 3403.48	-1312.48	 3016.15
     19.9890	 3402.00	 3406.13	-1279.13	 3020.31
     20.0150	 3419.00	 3408.80	-1264.80	 3024.43
     20.0410	 3477.00	 3411.50	-1209.50	 3028.53
     20.0670	 3404.00	 3414.22	-1285.22	 3032.61
     20.0930	 3400.00	 3416.97	-1291.97	 3036.65
     20.1190	 3376.00	 3419.73	-1318.73	 3040.67
     20.1450	 3491.00	 3422.51	-1206.51	 3044.66
     20.1710	 3491.00	 3425.30	-1209.30	 3048.62
     20.1970	 3532.00	 3428.11	-1171.11	 3052.55
     20.2230	 3460.00	 3430.93	-1245.93	 3056.45
     20.2490	 3401.00	 3433.76	-1307.76	 3060.33
     20.2750	 3465.00	 3436.60	-1246.60	 3064.17
     20.3010	 3514.00	 3439.44	-1200.44	 3067.99
     20.3270	 3429.00	 3442.28	-1288.28	 3071.78
     20.3530	 3375.00	 3445.13	-1345.13	 3075.53
     20.3790	 3444.00	 3447.98	-1278.98	 3079.26
     20.4050	 3460.00	 3450.90	-1265.90	 3082.96
     20.4310	 3523.00	 3453.75	-1205.75	 3086.63
     20.4570	 3514.00	 3456.60	-1217.60	 3090.27
     20.4830	 3406.00	 3459.45	-1328.45	 3093.88
     20.5090	 3388.00	 3462.29	-1349.29	 3097.46
     20.5350	 3387.00	 3465.16	-1353.16	 3101.01
     20.5610	 3566.00	 3467.99	-1176.99	 3104.53
     20.5870	 3589.00	 3470.81	-1156.81	 3108.02
     20.6130	 3424.00	 3473.62	-1324.62	 3111.48
     20.6390	 3442.00	 3476.43	-1309.43	 3114.92
     20.6650	 3460.00	 3479.22	-1294.22	 3118.32
     20.6910	 3425.00	 3482.00	-1332.00	 3121.68
     20.7170	 3504.00	 3484.77	-1255.77	 3125.02
     20.7430	 3537.00	 3487.53	-1225.53	 3128.33
     20.7690	 3465.00	 3490.28	-1300.28	 3131.61
     20.7950	 3484.00	 3493.01	-1284.01	 3134.86
     20.8210	 3426.00	 3495.73	-1344.73	 3138.08
     20.8470	 3490.00	 3498.44	-1283.44	 3141.26
     20.8730	 3576.00	 3501.12	-1200.12	 3144.42
     20.8990	 3538.00	 3503.80	-1240.80	 3147.54
     20.9250	 3544.00	 3506.45	-1237.45	 3150.64
     20.9510	 3439.00	 3509.09	-1345.09	 3153.70
     20.9770	 3494.00	 3511.71	-1292.71	 3156.73
     21.0030	 3446.00	 3514.32	-1343.32	 3159.74
     21.0290	 3542.00	 3516.90	-1249.90	 3162.71
     21.0550	 3485.00	 3519.47	-1309.47	 3165.65
     21.0810	 3552.00	 3522.02	-1245.02	 3168.56
     21.1070	 3514.00	 3524.54	-1285.54	 3171.43
     21.1330	 3519.00	 3527.05	-1283.05	 3174.28
     21.1590	 3608.00	 3529.54	-1196.54	 3177.10
     21.1850	 3595.00	 3532.00	-1212.00	 3179.88
     21.2110	 3572.00	 3534.45	-1237.45	 3182.64
     21.2370	 3580.00	 3536.88	-1231.88	 3185.36
     21.2630	 3643.00	 3539.28	-1171.28	 3188.06
     21.2890	 3566.00	 3541.66	-1250.66	 3190.72
     21.3150	 3528.00	 3544.02	-1291.02	 3193.35
     21.3410	 3515.00	 3546.36	-1306.36	 3195.95
     21.3670	 3511.00	 3548.67	-1312.67	 3198.52
     21.3930	 3531.00	 3550.96	-1294.96	 3201.05
     21.4190	 3643.00	 3553.23	-1185.23	 3203.56
     21.4450	 3571.00	 3555.48	-1259.48	 3206.04
     21.4710	 3535.00	 3557.70	-1297.70	 3208.48
     21.4970	 3601.00	 3559.90	-1233.90	 3210.90
     21.5230	 3689.00	 3562.08	-1148.08	 3213.28
     21.5490	 3583.00	 3564.23	-1256.23	 3215.63
     21.5750	 3632.00	 3566.35	-1209.35	 3217.96
     21.6010	 3675.00	 3568.46	-1168.46	 3220.25
     21.6270	 3623.00	 3570.54	-1222.54	 3222.51
     21.6530	 3592.00	 3572.59	-1255.59	 3224.74
     21.6790	 3592.00	 3574.62	-1257.62	 3226.94
     21.7050	 3675.00	 3576.63	-1176.63	 3229.11
     21.7310	 3590.00	 3578.61	-1263.61	 3231.24
     21.7570	 3535.00	 3580.56	-1320.56	 3233.35
     21.7830	 3580.00	 3582.49	-1277.49	 3235.43
     21.8090	 3616.00	 3584.40	-1243.40	 3237.47
     21.8350	 3641.00	 3586.28	-1220.28	 3239.49
     21.8610	 3645.00	 3588.14	-1218.14	 3241.48
     21.8870	 3595.00	 3589.97	-1269.97	 3243.43
     21.9130	 3536.00	 3591.77	-1330.77	 3245.36
     21.9390	 3532.00	 3593.55	-1336.55	 3247.25
     21.9650	 3585.00	 3595.31	-1285.31	 3249.12
     21.9910	 3622.00	 3597.04	-1250.04	 3250.95
     22.0170	 3655.00	 3598.74	-1218.74	 3252.76
     22.0430	 3635.00	 3600.42	-1240.42	 3254.53
     22.0690	 3632.00	 3602.07	-1245.07	 3256.27
     22.0950	 3676.00	 3603.70	-1202.70	 3257.99
     22.1210	 3608.00	 3605.30	-1272.30	 3259.67
     22.1470	 3547.00	 3606.87	-1334.87	 3261.33
     22.1730	 3608.00	 3608.42	-1275.42	 3262.95
     22.1990	 3592.00	 3609.95	-1292.95	 3264.55
     22.2250	 3527.00	 3611.45	-1359.45	 3266.12
     22.2510	 3602.00	 3612.92	-1285.92	 3267.65
     22.2770	 3627.00	 3614.36	-1262.36	 3269.16
     22.3030	 3617.00	 3615.79	-1273.79	 3270.64
     22.3290	 3635.00	 3617.18	-1257.18	 3272.09
     22.3550	 3655.00	 3618.55	-1238.55	 3273.50
     22.3810	 3687.00	 3619.90	-1207.90	 3274.90
     22.4070	 3689.00	 3621.22	-1207.22	 3276.26
     22.4330	 3635.00	 3622.51	-1262.51	 3277.59
     22.4590	 3618.00	 3623.78	-1280.78	 3278.89
     22.4850	 3662.00	 3625.02	-1238.02	 3280.16
     22.5110	 3695.00	 3626.24	-1206.24	 3281.41
     22.5370	 3631.00	 3627.43	-1271.43	 3282.63
     22.5630	 3544.00	 3628.59	-1359.59	 3283.81
     22.5890	 3619.00	 3629.73	-1285.73	 3284.97
     22.6150	 3684.00	 3630.85	-1221.85	 3286.10
     22.6410	 3621.00	 3631.94	-1285.94	 3287.21
     22.6670	 3661.00	 3633.00	-1247.00	 3288.28
     22.6930	 3675.00	 3634.04	-1234.04	 3289.33
     22.7190	 3723.00	 3635.06	-1187.06	 3290.35
     22.7450	 3659.00	 3636.05	-1252.05	 3291.34
     22.7710	 3580.00	 3637.01	-1332.01	 3292.30
     22.7970	 3573.00	 3637.95	-1339.95	 3293.23
     22.8230	 3615.00	 3638.87	-1298.87	 3294.14
     22.8490	 3544.00	 3639.75	-1370.75	 3295.02
     22.8750	 3647.00	 3640.62	-1268.62	 3295.87
     22.9010	 3694.00	 3641.46	-1222.46	 3296.69
     22.9270	 3723.00	 3642.27	-1194.27	 3297.49
     22.9530	 3689.00	 3643.07	-1229.07	 3298.26
     22.9790	 3687.00	 3643.83	-1231.83	 3299.00
     23.0050	 3619.00	 3644.57	-1300.57	 3299.71
     23.0310	 3623.00	 3645.29	-1297.29	 3300.40
     23.0570	 3701.00	 3645.98	-1219.98	 3301.06
     23.0830	 3565.00	 3646.65	-1356.65	 3301.69
     23.1090	 3568.00	 3647.30	-1354.30	 3302.30
     23.1350	 3616.00	 3647.92	-1306.92	 3302.88
     23.1610	 3609.00	 3648.51	-1314.51	 3303.43
     23.1870	 3637.00	 3649.09	-1287.09	 3303.96
     23.2130	 3620.00	 3649.64	-1304.64	 3304.46
     23.2390	 3620.00	 3650.16	-1305.16	 3304.94
     23.2650	 3707.00	 3650.66	-1218.66	 3305.38
     23.2910	 3739.00	 3651.14	-1187.14	 3305.81
     23.3170	 3734.00	 3651.60	-1192.60	 3306.20
     23.3430	 3594.00	 3652.03	-1333.03	 3306.57
     23.3690	 3543.00	 3652.44	-1384.44	 3306.92
     23.3950	 3602.00	 3652.82	-1325.82	 3307.23
     23.4210	 3498.00	 3653.41	-1430.41	 3307.53
     23.4470	 3652.00	 3653.75	-1276.75	 3307.80
     23.4730	 3587.00	 3654.06	-1342.06	 3308.04
     23.4990	 3758.00	 3654.36	-1171.36	 3308.25
     23.5250	 3660.00	 3654.63	-1269.63	 3308.45
     23.5510	 3701.00	 3654.99	-1228.99	 3308.61
     23.5770	 3714.00	 3655.21	-1216.21	 3308.76
     23.6030	 3682.00	 3655.42	-1248.42	 3308.87
     23.6290	 3586.00	 3655.60	-1344.60	 3308.96
     23.6550	 3575.00	 3655.76	-1355.76	 3309.03
     23.6810	 3742.00	 3655.90	-1188.90	 3309.08
     23.7070	 3586.00	 3656.01	-1345.01	 3309.09
     23.7330	 3552.00	 3656.11	-1379.11	 3309.09
     23.7590	 3589.00	 3656.18	-1342.18	 3309.06
     23.7850	 3639.00	 3656.23	-1292.23	 3309.00
     23.8110	 3650.00	 3656.26	-1281.26	 3308.93
     23.8370	 3609.00	 3656.27	-1322.27	 3308.82
     23.8630	 3623.00	 3656.25	-1308.25	 3308.70
     23.8890	 3699.00	 3656.22	-1232.22	 3308.55
     23.9150	 3657.00	 3656.16	-1274.16	 3308.37
     23.9410	 3528.00	 3656.09	-1403.09	 3308.18
     23.9670	 3635.00	 3655.99	-1295.99	 3307.96
     23.9930	 3606.00	 3655.87	-1324.87	 3307.71
     24.0190	 3560.00	 3655.73	-1370.73	 3307.45
     24.0450	 3611.00	 3655.57	-1319.57	 3307.16
     24.0710	 3570.00	 3655.39	-1360.39	 3306.84
     24.0970	 3639.00	 3655.20	-1291.20	 3306.51
     24.1230	 3559.00	 3654.98	-1370.98	 3306.15
     24.1490	 3595.00	 3654.74	-1334.74	 3305.77
     24.1750	 3605.00	 3654.48	-1324.48	 3305.37
     24.2010	 3592.00	 3654.20	-1337.20	 3304.94
     24.2270	 3592.00	 3653.90	-1336.90	 3304.49
     24.2530	 3599.00	 3653.58	-1329.58	 3304.02
     24.2790	 3597.00	 3653.25	-1331.25	 3303.53
     24.3050	 3597.00	 3652.89	-1330.89	 3303.01
     24.3310	 3627.00	 3652.52	-1300.52	 3302.48
     24.3570	 3643.00	 3652.13	-1284.13	 3301.92
     24.3830	 3626.00	 3651.71	-1300.71	 3301.34
     24.4090	 3668.00	 3651.28	-1258.28	 3300.74
     24.4350	 3631.00	 3650.83	-1294.83	 3300.11
     24.4610	 3638.00	 3650.37	-1287.37	 3299.47
     24.4870	 3655.00	 3649.88	-1269.88	 3298.80
     24.5130	 3655.00	 3649.38	-1269.38	 3298.12
     24.5390	 3632.00	 3648.86	-1291.86	 3297.41
     24.5650	 3582.00	 3648.32	-1341.32	 3296.68
     24.5910	 3621.00	 3647.76	-1301.76	 3295.93
     24.6170	 3609.00	 3647.19	-1313.19	 3295.16
     24.6430	 3543.00	 3646.60	-1378.60	 3294.37
     24.6690	 3579.00	 3645.99	-1341.99	 3293.56
     24.6950	 3670.00	 3645.36	-1250.36	 3292.72
     24.7210	 3694.00	 3644.72	-1225.72	 3291.87
     24.7470	 3692.00	 3644.06	-1227.06	 3291.00
     24.7730	 3743.00	 3643.39	-1175.39	 3290.11
     24.7990	 3702.00	 3642.69	-1215.69	 3289.19
     24.8250	 3660.00	 3641.99	-1256.99	 3288.26
     24.8510	 3645.00	 3641.26	-1271.26	 3287.31
     24.8770	 3535.00	 3640.52	-1380.52	 3286.33
     24.9030	 3563.00	 3639.77	-1351.77	 3285.34
     24.9290	 3646.00	 3638.99	-1267.99	 3284.33
     24.9550	 3665.00	 3638.21	-1248.21	 3283.30
     24.9810	 3658.00	 3637.41	-1254.41	 3282.25
     25.0070	 3663.00	 3636.59	-1248.59	 3281.18
     25.0330	 3713.00	 3635.76	-1197.76	 3280.09
     25.0590	 3701.00	 3634.91	-1208.91	 3278.99
     25.0850	 3669.00	 3634.05	-1240.05	 3277.86
     25.1110	 3621.00	 3633.17	-1287.17	 3276.72
     25.1370	 3536.00	 3632.28	-1371.28	 3275.55
     25.1630	 3567.00	 3631.38	-1339.38	 3274.37
     25.1890	 3672.00	 3630.46	-1233.46	 3273.17
     25.2150	 3655.00	 3629.53	-1249.53	 3271.95
     25.2410	 3535.00	 3628.58	-1368.58	 3270.72
     25.2670	 3554.00	 3627.62	-1348.62	 3269.46
     25.2930	 3660.00	 3626.65	-1241.65	 3268.19
     25.3190	 3620.00	 3625.67	-1280.67	 3266.90
     25.3450	 3581.00	 3624.67	-1318.67	 3265.59
     25.3710	 3544.00	 3623.66	-1354.66	 3264.26
     25.3970	 3607.00	 3622.63	-1290.63	 3262.92
     25.4230	 3634.00	 3621.60	-1262.60	 3261.55
     25.4490	 3536.00	 3620.55	-1359.55	 3260.18
     25.4750	 3586.00	 3619.49	-1308.49	 3258.78
     25.5010	 3639.00	 3618.42	-1254.42	 3257.36
     25.5270	 3607.00	 3617.34	-1285.34	 3255.93
     25.5530	 3641.00	 3616.25	-1250.25	 3254.49
     25.5790	 3655.00	 3615.14	-1235.14	 3253.02
     25.6050	 3589.00	 3614.03	-1300.03	 3251.54
     25.6310	 3620.00	 3612.90	-1267.90	 3250.04
     25.6570	 3566.00	 3611.76	-1320.76	 3248.53
     25.6830	 3613.00	 3610.62	-1272.62	 3246.99
     25.7090	 3664.00	 3609.46	-1220.46	 3245.45
     25.7350	 3589.00	 3608.29	-1294.29	 3243.88
     25.7610	 3721.00	 3607.12	-1161.12	 3242.30
     25.7870	 3535.00	 3605.93	-1345.93	 3240.70
     25.8130	 3613.00	 3604.74	-1266.74	 3239.09
     25.8390	 3672.00	 3603.54	-1206.54	 3237.46
     25.8650	 3674.00	 3602.32	-1203.32	 3235.82
     25.8910	 3591.00	 3601.10	-1285.10	 3234.16
     25.9170	 3624.00	 3599.88	-1250.88	 3232.48
     25.9430	 3522.00	 3598.64	-1351.64	 3230.79
     25.9690	 3620.00	 3597.40	-1252.40	 3229.08
     25.9950	 3638.00	 3596.15	-1233.15	 3227.36
     26.0210	 3590.00	 3594.89	-1279.89	 3225.62
     26.0470	 3551.00	 3593.63	-1317.63	 3223.87
     26.0730	 3635.00	 3592.36	-1232.36	 3222.10
     26.0990	 3599.00	 3591.08	-1267.08	 3220.32
     26.1250	 3586.00	 3589.80	-1278.80	 3218.52
     26.1510	 3599.00	 3588.51	-1264.51	 3216.71
     26.1770	 3514.00	 3587.22	-1348.22	 3214.88
     26.2030	 3584.00	 3585.92	-1276.92	 3213.04
     26.2290	 3678.00	 3584.62	-1181.62	 3211.18
     26.2550	 3744.00	 3583.31	-1114.31	 3209.31
     26.2810	 3678.00	 3582.00	-1179.00	 3207.42
     26.3070	 3626.00	 3580.68	-1229.68	 3205.52
     26.3330	 3551.00	 3579.36	-1303.36	 3203.61
     26.3590	 3654.00	 3578.04	-1199.04	 3201.68
     26.3850	 3553.00	 3576.72	-1298.72	 3199.74
     26.4110	 3547.00	 3575.40	-1303.40	 3197.78
     26.4370	 3634.00	 3574.07	-1215.07	 3195.81
     26.4630	 3538.00	 3572.74	-1309.74	 3193.83
     26.4890	 3535.00	 3571.41	-1311.41	 3191.83
     26.5150	 3624.00	 3570.08	-1221.08	 3189.82
     26.5410	 3536.00	 3568.75	-1307.75	 3187.79
     26.5670	 3585.00	 3567.42	-1257.42	 3185.75
     26.5930	 3569.00	 3566.09	-1272.09	 3183.70
     26.6190	 3584.00	 3564.76	-1255.76	 3181.64
     26.6450	 3583.00	 3563.43	-1255.43	 3179.56
     26.6710	 3612.00	 3562.11	-1225.11	 3177.47
     26.6970	 3499.00	 3560.79	-1336.79	 3175.37
     26.7230	 3591.00	 3559.47	-1243.47	 3173.25
     26.7490	 3548.00	 3558.15	-1285.15	 3171.12
     26.7750	 3598.00	 3556.84	-1233.84	 3168.98
     26.8010	 3580.00	 3555.53	-1250.53	 3166.82
     26.8270	 3578.00	 3554.23	-1251.23	 3164.66
     26.8530	 3592.00	 3552.93	-1235.93	 3162.48
     26.8790	 3687.00	 3551.65	-1139.65	 3160.28
     26.9050	 3621.00	 3550.36	-1204.36	 3158.08
     26.9310	 3642.00	 3549.09	-1182.09	 3155.86
     26.9570	 3625.00	 3547.82	-1197.82	 3153.63
     26.9830	 3539.00	 3546.56	-1282.56	 3151.39
     27.0090	 3521.00	 3545.32	-1299.32	 3149.14
     27.0350	 3523.00	 3544.08	-1296.08	 3146.88
     27.0610	 3596.00	 3542.85	-1221.85	 3144.60
     27.0870	 3649.00	 3541.64	-1167.64	 3142.31
     27.1130	 3589.00	 3540.44	-1226.44	 3140.01
     27.1390	 3543.00	 3539.25	-1271.25	 3137.70
     27.1650	 3573.00	 3538.07	-1240.07	 3135.38
     27.1910	 3637.00	 3536.91	-1174.91	 3133.04
     27.2170	 3648.00	 3535.77	-1162.77	 3130.70
     27.2430	 3632.00	 3534.65	-1177.65	 3128.34
     27.2690	 3632.00	 3533.54	-1176.54	 3125.97
     27.2950	 3634.00	 3532.45	-1173.45	 3123.59
     27.3210	 3569.00	 3531.38	-1237.38	 3121.20
     27.3470	 3553.00	 3530.34	-1252.34	 3118.80
     27.3730	 3595.00	 3529.31	-1209.31	 3116.39
     27.3990	 3524.00	 3528.31	-1279.31	 3113.97
     27.4250	 3485.00	 3527.33	-1317.33	 3111.53
     27.4510	 3527.00	 3526.38	-1274.38	 3109.09
     27.4770	 3545.00	 3525.46	-1255.46	 3106.64
     27.5030	 3526.00	 3524.56	-1273.56	 3104.17
     27.5290	 3567.00	 3523.70	-1231.70	 3101.69
     27.5550	 3622.00	 3522.87	-1175.87	 3099.21
     27.5810	 3609.00	 3522.07	-1188.07	 3096.71
     27.6070	 3567.00	 3521.30	-1229.30	 3094.21
     27.6330	 3520.00	 3520.57	-1275.57	 3091.69
     27.6590	 3535.00	 3519.88	-1259.88	 3089.16
     27.6850	 3575.00	 3519.23	-1219.23	 3086.63
     27.7110	 3569.00	 3518.62	-1224.62	 3084.08
     27.7370	 3550.00	 3518.05	-1243.05	 3081.53
     27.7630	 3615.00	 3517.53	-1177.53	 3078.96
     27.7890	 3662.00	 3517.06	-1130.06	 3076.39
     27.8150	 3614.00	 3516.64	-1177.64	 3073.80
     27.8410	 3521.00	 3516.27	-1270.27	 3071.21
     27.8670	 3575.00	 3515.95	-1215.95	 3068.60
     27.8930	 3544.00	 3515.69	-1246.69	 3065.99
     27.9190	 3497.00	 3515.49	-1293.49	 3063.37
     27.9450	 3638.00	 3515.36	-1152.36	 3060.73
     27.9710	 3586.00	 3515.29	-1204.29	 3058.09
     27.9970	 3542.00	 3515.29	-1248.29	 3055.44
     28.0230	 3436.00	 3515.36	-1354.36	 3052.78
     28.0490	 3437.00	 3515.50	-1353.50	 3050.12
     28.0750	 3477.00	 3516.24	-1314.24	 3047.44
     28.1010	 3441.00	 3516.55	-1350.55	 3044.75
     28.1270	 3614.00	 3516.94	-1177.94	 3042.06
     28.1530	 3545.00	 3517.42	-1247.42	 3039.36
     28.1790	 3400.00	 3518.00	-1393.00	 3036.64
     28.2050	 3553.00	 3518.67	-1240.67	 3033.92
     28.2310	 3522.00	 3519.71	-1272.71	 3031.20
     28.2570	 3490.00	 3520.59	-1305.59	 3028.46
     28.2830	 3542.00	 3521.59	-1254.59	 3025.71
     28.3090	 3657.00	 3522.71	-1140.71	 3022.96
     28.3350	 3636.00	 3523.95	-1162.95	 3020.20
     28.3610	 3489.00	 3525.32	-1311.32	 3017.43
     28.3870	 3557.00	 3526.82	-1244.82	 3014.65
     28.4130	 3483.00	 3528.47	-1320.47	 3011.86
     28.4390	 3463.00	 3530.26	-1342.26	 3009.07
     28.4650	 3507.00	 3532.21	-1300.21	 3006.27
     28.4910	 3557.00	 3534.33	-1252.33	 3003.46
     28.5170	 3492.00	 3536.61	-1319.61	 3000.64
     28.5430	 3497.00	 3539.07	-1317.07	 2997.81
     28.5690	 3516.00	 3541.72	-1300.72	 2994.98
     28.5950	 3535.00	 3544.57	-1284.57	 2992.14
     28.6210	 3615.00	 3547.62	-1207.62	 2989.29
     28.6470	 3609.00	 3550.89	-1216.89	 2986.44
     28.6730	 3538.00	 3554.38	-1291.38	 2983.57
     28.6990	 3632.00	 3558.10	-1201.10	 2980.70
     28.7250	 3540.00	 3562.08	-1297.08	 2977.83
     28.7510	 3464.00	 3566.31	-1377.31	 2974.94
     28.7770	 3566.00	 3570.81	-1279.81	 2972.05
     28.8030	 3545.00	 3575.60	-1305.60	 2969.15
     28.8290	 3587.00	 3580.68	-1268.68	 2966.25
     28.8550	 3535.00	 3586.07	-1326.07	 2963.33
     28.8810	 3531.00	 3591.78	-1335.78	 2960.42
     28.9070	 3548.00	 3597.83	-1324.83	 2957.49
     28.9330	 3534.00	 3604.24	-1345.24	 2954.56
     28.9590	 3633.00	 3611.01	-1253.01	 2951.62
     28.9850	 3614.00	 3618.17	-1279.17	 2948.67
     29.0110	 3620.00	 3625.73	-1280.73	 2945.72
     29.0370	 3573.00	 3633.70	-1335.70	 2942.76
     29.0630	 3619.00	 3642.11	-1298.11	 2939.79
     29.0890	 3632.00	 3650.96	-1293.96	 2936.82
     29.1150	 3570.00	 3660.29	-1365.29	 2933.84
     29.1410	 3499.00	 3670.09	-1446.09	 2930.86
     29.1670	 3536.00	 3680.39	-1419.39	 2927.86
     29.1930	 3552.00	 3691.21	-1414.21	 2924.87
     29.2190	 3581.00	 3702.56	-1396.56	 2921.86
     29.2450	 3655.00	 3714.45	-1334.45	 2918.85
     29.2710	 3615.00	 3726.89	-1386.89	 2915.84
     29.2970	 3625.00	 3739.89	-1389.89	 2912.82
     29.3230	 3665.00	 3753.47	-1363.47	 2909.79
     29.3490	 3682.00	 3767.62	-1360.62	 2906.76
     29.3750	 3668.00	 3782.35	-1389.35	 2903.72
     29.4010	 3707.00	 3797.65	-1365.65	 2900.67
     29.4270	 3713.00	 3813.51	-1375.51	 2897.62
     29.4530	 3757.00	 3829.93	-1347.93	 2894.57
     29.4790	 3764.00	 3846.87	-1357.87	 2891.51
     29.5050	 3818.00	 3864.33	-1321.33	 2888.44
     29.5310	 3780.00	 3882.24	-1377.24	 2885.37
     29.5570	 3754.00	 3900.59	-1421.59	 2882.29
     29.5830	 3747.00	 3919.29	-1447.29	 2879.21
     29.6090	 3888.00	 3938.30	-1325.30	 2876.12
     29.6350	 3872.00	 3957.52	-1360.52	 2873.03
     29.6610	 3863.00	 3976.88	-1388.88	 2869.93
     29.6870	 3877.00	 3996.26	-1394.26	 2866.82
     29.7130	 3908.00	 4015.55	-1382.55	 2863.72
     29.7390	 4036.00	 4034.61	-1273.61	 2860.60
     29.7650	 4023.00	 4053.31	-1305.31	 2857.48
     29.7910	 4021.00	 4071.49	-1325.49	 2854.36
     29.8170	 4088.00	 4088.97	-1275.97	 2851.23
     29.8430	 4075.00	 4105.60	-1305.60	 2848.10
     29.8690	 4021.00	 4121.18	-1375.18	 2844.96
     29.8950	 4023.00	 4135.55	-1387.55	 2841.82
     29.9210	 4074.00	 4148.51	-1349.51	 2838.67
     29.9470	 4123.00	 4159.90	-1311.90	 2835.52
     29.9730	 4176.00	 4169.56	-1268.56	 2832.36
     29.9990	 4210.00	 4177.32	-1242.32	 2829.20
     30.0250	 4204.00	 4183.07	-1254.07	 2826.04
     30.0510	 4190.00	 4186.68	-1271.68	 2822.87
     30.0770	 4204.00	 4188.09	-1259.09	 2819.70
     30.1030	 4188.00	 4187.22	-1274.22	 2816.52
     30.1290	 4191.00	 4184.07	-1268.07	 2813.34
     30.1550	 4243.00	 4178.63	-1210.63	 2810.15
     30.1810	 4224.00	 4170.94	-1221.94	 2806.96
     30.2070	 4208.00	 4161.06	-1228.06	 2803.77
     30.2330	 4190.00	 4149.10	-1234.10	 2800.57
     30.2590	 4083.00	 4135.18	-1327.18	 2797.37
     30.2850	 4073.00	 4119.42	-1321.42	 2794.16
     30.3110	 4164.00	 4101.99	-1212.99	 2790.95
     30.3370	 4156.00	 4083.06	-1202.06	 2787.74
     30.3630	 4150.00	 4062.80	-1187.80	 2784.52
     30.3890	 4157.00	 4041.40	-1159.40	 2781.30
     30.4150	 4008.00	 4019.03	-1286.03	 2778.07
     30.4410	 3970.00	 3995.87	-1300.87	 2774.85
     30.4670	 3865.00	 3972.09	-1382.09	 2771.61
     30.4930	 3971.00	 3947.85	-1251.85	 2768.38
     30.5190	 3971.00	 3923.31	-1227.31	 2765.14
     30.5450	 3907.00	 3898.60	-1266.60	 2761.90
     30.5710	 3834.00	 3873.85	-1314.85	 2758.65
     30.5970	 3878.00	 3849.17	-1246.17	 2755.40
     30.6230	 3830.00	 3824.67	-1269.67	 2752.15
     30.6490	 3727.00	 3800.51	-1348.51	 2748.90
     30.6750	 3700.00	 3776.60	-1351.60	 2745.64
     30.7010	 3720.00	 3753.08	-1308.08	 2742.38
     30.7270	 3709.00	 3730.00	-1296.00	 2739.11
     30.7530	 3663.00	 3707.42	-1319.42	 2735.85
     30.7790	 3663.00	 3685.41	-1297.41	 2732.58
     30.8050	 3670.00	 3663.90	-1268.90	 2729.30
     30.8310	 3726.00	 3642.96	-1191.96	 2726.03
     30.8570	 3567.00	 3622.59	-1330.59	 2722.75
     30.8830	 3533.00	 3602.81	-1344.81	 2719.47
     30.9090	 3536.00	 3583.62	-1322.62	 2716.18
     30.9350	 3509.00	 3565.01	-1331.01	 2712.90
     30.9610	 3449.00	 3546.98	-1372.98	 2709.61
     30.9870	 3475.00	 3529.52	-1329.52	 2706.31
     31.0130	 3481.00	 3512.63	-1306.63	 2703.02
     31.0390	 3426.00	 3496.28	-1345.28	 2699.72
     31.0650	 3525.00	 3480.47	-1230.47	 2696.42
     31.0910	 3443.00	 3465.19	-1297.19	 2693.12
     31.1170	 3368.00	 3450.41	-1357.41	 2689.82
     31.1430	 3405.00	 3436.12	-1306.12	 2686.51
     31.1690	 3445.00	 3422.30	-1252.30	 2683.20
     31.1950	 3339.00	 3408.95	-1344.95	 2679.89
     31.2210	 3430.00	 3396.04	-1241.04	 2676.58
     31.2470	 3389.00	 3383.56	-1269.56	 2673.26
     31.2730	 3336.00	 3371.49	-1310.49	 2669.95
     31.2990	 3365.00	 3359.81	-1269.81	 2666.63
     31.3250	 3241.00	 3348.52	-1382.52	 2663.30
     31.3510	 3379.00	 3337.59	-1233.59	 2659.98
     31.3770	 3306.00	 3327.02	-1296.02	 2656.66
     31.4030	 3264.00	 3316.78	-1327.78	 2653.33
     31.4290	 3320.00	 3306.87	-1261.87	 2650.00
     31.4550	 3294.00	 3297.37	-1278.37	 2646.67
     31.4810	 3312.00	 3288.07	-1251.07	 2643.34
     31.5070	 3245.00	 3279.06	-1309.06	 2640.01
     31.5330	 3287.00	 3270.33	-1258.33	 2636.67
     31.5590	 3255.00	 3261.86	-1281.86	 2633.33
     31.5850	 3212.00	 3253.66	-1316.66	 2630.00
     31.6110	 3225.00	 3245.74	-1295.74	 2626.66
     31.6370	 3282.00	 3238.02	-1231.02	 2623.32
     31.6630	 3248.00	 3230.52	-1257.52	 2619.97
     31.6890	 3283.00	 3223.25	-1215.25	 2616.63
     31.7150	 3334.00	 3216.18	-1157.18	 2613.28
     31.7410	 3291.00	 3209.32	-1193.32	 2609.94
     31.7670	 3216.00	 3202.66	-1261.66	 2606.59
     31.7930	 3196.00	 3196.19	-1275.19	 2603.24
     31.8190	 3214.00	 3189.91	-1250.91	 2599.89
     31.8450	 3221.00	 3183.80	-1237.80	 2596.54
     31.8710	 3210.00	 3177.87	-1242.87	 2593.19
     31.8970	 3344.00	 3172.10	-1103.10	 2589.84
     31.9230	 3197.00	 3166.50	-1244.50	 2586.48
     31.9490	 3173.00	 3161.05	-1263.05	 2583.13
     31.9750	 3237.00	 3155.76	-1193.76	 2579.78
     32.0010	 3213.00	 3150.61	-1212.61	 2576.42
     32.0270	 3280.00	 3145.62	-1140.62	 2573.06
     32.0530	 3221.00	 3140.76	-1194.76	 2569.70
     32.0790	 3127.00	 3136.04	-1284.04	 2566.35
     32.1050	 3231.00	 3131.46	-1175.46	 2562.99
     32.1310	 3262.00	 3127.01	-1140.01	 2559.63
     32.1570	 3258.00	 3122.69	-1139.69	 2556.27
     32.1830	 3201.00	 3118.49	-1192.49	 2552.91
     32.2090	 3183.00	 3114.42	-1206.42	 2549.55
     32.2350	 3254.00	 3110.48	-1131.48	 2546.19
     32.2610	 3302.00	 3106.65	-1079.65	 2542.82
     32.2870	 3262.00	 3102.95	-1115.95	 2539.46
     32.3130	 3217.00	 3099.36	-1157.36	 2536.10
     32.3390	 3190.00	 3095.89	-1180.89	 2532.74
     32.3650	 3225.00	 3092.53	-1142.53	 2529.38
     32.3910	 3232.00	 3089.29	-1132.29	 2526.01
     32.4170	 3182.00	 3086.16	-1179.16	 2522.65
     32.4430	 3177.00	 3083.14	-1181.14	 2519.29
     32.4690	 3195.00	 3080.24	-1160.24	 2515.92
     32.4950	 3213.00	 3077.45	-1139.45	 2512.56
     32.5210	 3161.00	 3074.77	-1188.77	 2509.20
     32.5470	 3094.00	 3072.21	-1253.21	 2505.84
     32.5730	 3138.00	 3069.75	-1206.75	 2502.47
     32.5990	 3215.00	 3067.41	-1127.41	 2499.11
     32.6250	 3221.00	 3065.18	-1119.18	 2495.75
     32.6510	 3191.00	 3063.06	-1147.06	 2492.39
     32.6770	 3154.00	 3061.06	-1182.06	 2489.03
     32.7030	 3127.00	 3059.18	-1207.18	 2485.67
     32.7290	 3151.00	 3057.41	-1181.41	 2482.31
     32.7550	 3147.00	 3055.76	-1183.76	 2478.95
     32.7810	 3151.00	 3054.22	-1178.22	 2475.59
     32.8070	 3167.00	 3052.81	-1160.81	 2472.23
     32.8330	 3162.00	 3051.52	-1164.52	 2468.87
     32.8590	 3103.00	 3050.36	-1222.36	 2465.51
     32.8850	 3077.00	 3049.32	-1247.32	 2462.15
     32.9110	 3132.00	 3048.41	-1191.41	 2458.80
     32.9370	 3142.00	 3047.63	-1180.63	 2455.44
     32.9630	 3135.00	 3046.99	-1186.99	 2452.09
     32.9890	 3202.00	 3046.48	-1119.48	 2448.73
     33.0150	 3208.00	 3046.11	-1113.11	 2445.38
     33.0410	 3056.00	 3045.89	-1264.89	 2442.03
     33.0670	 3004.00	 3045.81	-1316.81	 2438.68
     33.0930	 3073.00	 3045.88	-1247.88	 2435.33
     33.1190	 3125.00	 3046.10	-1196.10	 2431.98
     33.1450	 3083.00	 3046.49	-1238.49	 2428.63
     33.1710	 3108.00	 3047.03	-1214.03	 2425.28
     33.1970	 3125.00	 3047.74	-1197.74	 2421.94
     33.2230	 3218.00	 3048.63	-1105.63	 2418.59
     33.2490	 3155.00	 3049.69	-1169.69	 2415.25
     33.2750	 3126.00	 3050.93	-1199.93	 2411.91
     33.3010	 3061.00	 3052.37	-1266.37	 2408.56
     33.3270	 3031.00	 3053.99	-1297.99	 2405.23
     33.3530	 3030.00	 3055.82	-1300.82	 2401.89
     33.3790	 3081.00	 3057.86	-1251.86	 2398.55
     33.4050	 3144.00	 3060.11	-1191.11	 2395.22
     33.4310	 3146.00	 3062.58	-1191.58	 2391.88
     33.4570	 3083.00	 3065.28	-1257.28	 2388.55
     33.4830	 3193.00	 3068.22	-1150.22	 2385.22
     33.5090	 3087.00	 3071.41	-1259.41	 2381.89
     33.5350	 3111.00	 3074.86	-1238.86	 2378.56
     33.5610	 3107.00	 3078.57	-1246.57	 2375.24
     33.5870	 3133.00	 3082.56	-1224.56	 2371.92
     33.6130	 3151.00	 3086.83	-1210.83	 2368.59
     33.6390	 3092.00	 3091.41	-1274.41	 2365.27
     33.6650	 3158.00	 3096.29	-1213.29	 2361.96
     33.6910	 3104.00	 3101.50	-1272.50	 2358.64
     33.7170	 3107.00	 3107.04	-1275.04	 2355.33
     33.7430	 3132.00	 3112.94	-1255.94	 2352.02
     33.7690	 3097.00	 3119.19	-1297.19	 2348.70
     33.7950	 3185.00	 3125.83	-1215.83	 2345.40
     33.8210	 3226.00	 3132.86	-1181.86	 2342.09
     33.8470	 3160.00	 3140.31	-1255.31	 2338.79
     33.8730	 3068.00	 3148.18	-1355.18	 2335.49
     33.8990	 3037.00	 3156.50	-1394.50	 2332.19
     33.9250	 3150.00	 3165.29	-1290.29	 2328.89
     33.9510	 3132.00	 3174.56	-1317.56	 2325.60
     33.9770	 3188.00	 3184.35	-1271.35	 2322.30
     34.0030	 3143.00	 3194.67	-1326.67	 2319.01
     34.0290	 3116.00	 3205.54	-1364.54	 2315.73
     34.0550	 3227.00	 3216.98	-1264.98	 2312.44
     34.0810	 3077.00	 3229.04	-1427.04	 2309.16
     34.1070	 3242.00	 3241.72	-1274.72	 2305.88
     34.1330	 3226.00	 3255.05	-1304.05	 2302.60
     34.1590	 3226.00	 3269.08	-1318.08	 2299.33
     34.1850	 3204.00	 3283.82	-1354.82	 2296.06
     34.2110	 3161.00	 3299.31	-1413.31	 2292.79
     34.2370	 3323.00	 3315.57	-1267.57	 2289.52
     34.2630	 3275.00	 3332.65	-1332.65	 2286.26
     34.2890	 3328.00	 3350.57	-1297.57	 2283.00
     34.3150	 3256.00	 3369.37	-1388.37	 2279.74
     34.3410	 3273.00	 3389.08	-1391.08	 2276.49
     34.3670	 3329.00	 3409.75	-1355.75	 2273.24
     34.3930	 3229.00	 3431.40	-1477.40	 2269.99
     34.4190	 3276.00	 3454.08	-1453.08	 2266.74
     34.4450	 3321.00	 3477.82	-1431.82	 2263.50
     34.4710	 3426.00	 3502.65	-1351.65	 2260.26
     34.4970	 3377.00	 3528.62	-1426.62	 2257.02
     34.5230	 3377.00	 3555.76	-1453.76	 2253.79
     34.5490	 3399.00	 3584.10	-1460.10	 2250.56
     34.5750	 3407.00	 3613.67	-1481.67	 2247.33
     34.6010	 3413.00	 3644.50	-1506.50	 2244.11
     34.6270	 3436.00	 3676.60	-1515.60	 2240.89
     34.6530	 3530.00	 3710.02	-1455.02	 2237.67
     34.6790	 3525.00	 3744.83	-1494.83	 2234.46
     34.7050	 3548.00	 3780.88	-1507.88	 2231.25
     34.7310	 3577.00	 3818.24	-1516.24	 2228.05
     34.7570	 3670.00	 3856.92	-1461.92	 2224.84
     34.7830	 3724.00	 3896.88	-1447.88	 2221.64
     34.8090	 3762.00	 3938.08	-1451.08	 2218.45
     34.8350	 3785.00	 3980.51	-1470.51	 2215.26
     34.8610	 3857.00	 4024.03	-1442.03	 2212.07
     34.8870	 3944.00	 4068.59	-1399.59	 2208.88
     34.9130	 4037.00	 4114.07	-1352.07	 2205.70
     34.9390	 4129.00	 4160.33	-1306.33	 2202.53
     34.9650	 4234.00	 4207.23	-1248.23	 2199.35
     34.9910	 4261.00	 4254.57	-1268.57	 2196.18
     35.0170	 4281.00	 4302.15	-1296.15	 2193.02
     35.0430	 4357.00	 4349.71	-1267.71	 2189.86
     35.0690	 4463.00	 4397.00	-1209.00	 2186.70
     35.0950	 4434.00	 4443.70	-1284.70	 2183.55
     35.1210	 4513.00	 4489.50	-1251.50	 2180.40
     35.1470	 4596.00	 4534.02	-1213.02	 2177.25
     35.1730	 4623.00	 4576.92	-1228.92	 2174.11
     35.1990	 4784.00	 4617.80	-1108.80	 2170.97
     35.2250	 4767.00	 4656.25	-1164.25	 2167.84
     35.2510	 4793.00	 4691.86	-1173.86	 2164.71
     35.2770	 4966.00	 4724.26	-1033.26	 2161.59
     35.3030	 4935.00	 4753.05	-1093.05	 2158.47
     35.3290	 4814.00	 4777.86	-1238.86	 2155.35
     35.3550	 4873.00	 4798.37	-1200.37	 2152.24
     35.3810	 5033.00	 4814.29	-1056.29	 2149.14
     35.4070	 5036.00	 4825.38	-1064.38	 2146.03
     35.4330	 5003.00	 4831.46	-1103.46	 2142.93
     35.4590	 5074.00	 4832.40	-1033.40	 2139.84
     35.4850	 5072.00	 4828.17	-1031.17	 2136.75
     35.5110	 5100.00	 4818.75	 -993.75	 2133.67
     35.5370	 5018.00	 4804.25	-1061.25	 2130.59
     35.5630	 5003.00	 4784.81	-1056.81	 2127.51
     35.5890	 4933.00	 4760.63	-1102.63	 2124.44
     35.6150	 4785.00	 4731.97	-1221.97	 2121.38
     35.6410	 4720.00	 4699.15	-1254.15	 2118.32
     35.6670	 4697.00	 4662.49	-1240.49	 2115.26
     35.6930	 4705.00	 4622.39	-1192.39	 2112.21
     35.7190	 4724.00	 4579.22	-1130.22	 2109.16
     35.7450	 4565.00	 4533.39	-1243.39	 2106.12
     35.7710	 4547.00	 4485.29	-1213.29	 2103.09
     35.7970	 4482.00	 4435.33	-1228.33	 2100.06
     35.8230	 4364.00	 4383.88	-1294.88	 2097.03
     35.8490	 4463.00	 4331.32	-1143.32	 2094.01
     35.8750	 4351.00	 4277.97	-1201.97	 2090.99
     35.9010	 4166.00	 4224.16	-1333.16	 2087.98
     35.9270	 4126.00	 4170.18	-1319.18	 2084.97
     35.9530	 4036.00	 4116.29	-1355.29	 2081.97
     35.9790	 3991.00	 4062.71	-1346.71	 2078.98
     36.0050	 3883.00	 4009.65	-1401.65	 2075.99
     36.0310	 3825.00	 3957.28	-1407.28	 2073.00
     36.0570	 3731.00	 3905.76	-1449.76	 2070.02
     36.0830	 3754.00	 3855.19	-1376.19	 2067.05
     36.1090	 3656.00	 3805.70	-1424.70	 2064.08
     36.1350	 3602.00	 3757.36	-1430.36	 2061.11
     36.1610	 3467.00	 3710.23	-1518.23	 2058.16
     36.1870	 3359.00	 3664.36	-1580.36	 2055.20
     36.2130	 3390.00	 3619.77	-1504.77	 2052.26
     36.2390	 3300.00	 3576.50	-1551.50	 2049.31
     36.2650	 3362.00	 3534.55	-1447.55	 2046.38
     36.2910	 3302.00	 3493.91	-1466.91	 2043.45
     36.3170	 3190.00	 3454.58	-1539.58	 2040.52
     36.3430	 3098.00	 3416.54	-1593.54	 2037.60
     36.3690	 3179.00	 3379.79	-1475.79	 2034.69
     36.3950	 3080.00	 3344.27	-1539.27	 2031.78
     36.4210	 3028.00	 3309.97	-1556.97	 2028.88
     36.4470	 2963.00	 3276.86	-1588.86	 2025.98
     36.4730	 2971.00	 3244.91	-1548.91	 2023.09
     36.4990	 2964.00	 3214.06	-1525.06	 2020.21
     36.5250	 3006.00	 3184.31	-1453.31	 2017.33
     36.5510	 2850.00	 3155.59	-1580.59	 2014.46
     36.5770	 2932.00	 3127.89	-1470.89	 2011.59
     36.6030	 2961.00	 3101.16	-1415.16	 2008.73
     36.6290	 2868.00	 3075.36	-1482.36	 2005.87
     36.6550	 2977.00	 3050.47	-1348.47	 2003.03
     36.6810	 2867.00	 3026.43	-1434.43	 2000.18
     36.7070	 2919.00	 3003.23	-1359.23	 1997.35
     36.7330	 2871.00	 2980.82	-1384.82	 1994.52
     36.7590	 2940.00	 2959.18	-1294.18	 1991.69
     36.7850	 2882.00	 2938.27	-1331.27	 1988.87
     36.8110	 2923.00	 2918.06	-1270.06	 1986.06
     36.8370	 2930.00	 2898.52	-1243.52	 1983.26
     36.8630	 2877.00	 2879.63	-1277.63	 1980.46
     36.8890	 2905.00	 2861.36	-1231.36	 1977.66
     36.9150	 3023.00	 2843.67	-1095.67	 1974.88
     36.9410	 2993.00	 2826.56	-1108.56	 1972.10
     36.9670	 2933.00	 2809.98	-1151.98	 1969.32
     36.9930	 2845.00	 2793.93	-1223.93	 1966.55
     37.0190	 2896.00	 2778.45	-1157.45	 1963.79
     37.0450	 2869.00	 2763.37	-1169.37	 1961.04
     37.0710	 2911.00	 2748.75	-1112.75	 1958.29
     37.0970	 2897.00	 2734.56	-1112.56	 1955.55
     37.1230	 2850.00	 2720.79	-1145.79	 1952.81
     37.1490	 2768.00	 2707.42	-1214.42	 1950.09
     37.1750	 2809.00	 2694.48	-1160.48	 1947.36
     37.2010	 2840.00	 2681.86	-1116.86	 1944.65
     37.2270	 2841.00	 2669.60	-1103.60	 1941.94
     37.2530	 2757.00	 2657.68	-1175.68	 1939.24
     37.2790	 2698.00	 2646.08	-1223.08	 1936.54
     37.3050	 2661.00	 2634.80	-1248.80	 1933.85
     37.3310	 2739.00	 2623.81	-1159.81	 1931.17
     37.3570	 2734.00	 2613.12	-1154.12	 1928.50
     37.3830	 2701.00	 2602.70	-1176.70	 1925.83
     37.4090	 2666.00	 2592.54	-1201.54	 1923.17
     37.4350	 2606.00	 2582.65	-1251.65	 1920.52
     37.4610	 2616.00	 2572.99	-1231.99	 1917.87
     37.4870	 2622.00	 2563.58	-1216.58	 1915.23
     37.5130	 2589.00	 2554.39	-1240.39	 1912.59
     37.5390	 2589.00	 2545.42	-1231.42	 1909.97
     37.5650	 2560.00	 2536.66	-1251.66	 1907.35
     37.5910	 2498.00	 2528.10	-1305.10	 1904.74
     37.6170	 2518.00	 2519.74	-1276.74	 1902.13
     37.6430	 2525.00	 2511.57	-1261.57	 1899.53
     37.6690	 2502.00	 2503.58	-1276.58	 1896.94
     37.6950	 2465.00	 2495.77	-1305.77	 1894.36
     37.7210	 2431.00	 2488.12	-1332.12	 1891.78
     37.7470	 2427.00	 2480.64	-1328.64	 1889.21
     37.7730	 2416.00	 2473.36	-1332.36	 1886.65
     37.7990	 2426.00	 2466.19	-1315.19	 1884.10
     37.8250	 2473.00	 2459.16	-1261.16	 1881.55
     37.8510	 2455.00	 2452.28	-1272.28	 1879.01
     37.8770	 2372.00	 2445.53	-1348.53	 1876.47
     37.9030	 2320.00	 2438.92	-1393.92	 1873.95
     37.9290	 2350.00	 2432.46	-1357.46	 1871.43
     37.9550	 2390.00	 2426.10	-1311.10	 1868.92
     37.9810	 2339.00	 2419.86	-1355.86	 1866.41
     38.0070	 2349.00	 2413.74	-1339.74	 1863.92
     38.0330	 2344.00	 2407.73	-1338.73	 1861.43
     38.0590	 2253.00	 2401.83	-1423.83	 1858.95
     38.0850	 2243.00	 2396.04	-1428.04	 1856.47
     38.1110	 2294.00	 2390.35	-1371.35	 1854.01
     38.1370	 2335.00	 2384.76	-1324.76	 1851.55
     38.1630	 2332.00	 2379.27	-1322.27	 1849.10
     38.1890	 2285.00	 2373.87	-1363.87	 1846.65
     38.2150	 2296.00	 2368.57	-1347.57	 1844.22
     38.2410	 2305.00	 2363.35	-1333.35	 1841.79
     38.2670	 2288.00	 2358.22	-1345.22	 1839.37
     38.2930	 2304.00	 2353.18	-1324.18	 1836.95
     38.3190	 2336.00	 2348.22	-1287.22	 1834.55
     38.3450	 2319.00	 2343.34	-1299.34	 1832.15
     38.3710	 2304.00	 2338.54	-1309.54	 1829.76
     38.3970	 2315.00	 2333.82	-1293.82	 1827.38
     38.4230	 2321.00	 2329.17	-1283.17	 1825.00
     38.4490	 2306.00	 2324.59	-1293.59	 1822.64
     38.4750	 2228.00	 2320.08	-1367.08	 1820.28
     38.5010	 2284.00	 2315.65	-1306.65	 1817.93
     38.5270	 2271.00	 2311.28	-1315.28	 1815.58
     38.5530	 2368.00	 2306.97	-1213.97	 1813.25
     38.5790	 2294.00	 2302.74	-1283.74	 1810.92
     38.6050	 2238.00	 2298.56	-1335.56	 1808.60
     38.6310	 2225.00	 2294.45	-1344.45	 1806.29
     38.6570	 2231.00	 2290.39	-1334.39	 1803.98
     38.6830	 2276.00	 2286.40	-1285.40	 1801.69
     38.7090	 2288.00	 2282.47	-1269.47	 1799.40
     38.7350	 2189.00	 2278.59	-1364.59	 1797.12
     38.7610	 2222.00	 2274.77	-1327.77	 1794.85
     38.7870	 2333.00	 2271.00	-1213.00	 1792.58
     38.8130	 2270.00	 2267.29	-1272.29	 1790.33
     38.8390	 2323.00	 2263.63	-1215.63	 1788.08
     38.8650	 2220.00	 2260.02	-1315.02	 1785.84
     38.8910	 2290.00	 2256.46	-1241.46	 1783.61
     38.9170	 2253.00	 2252.96	-1274.96	 1781.38
     38.9430	 2236.00	 2249.50	-1288.50	 1779.17
     38.9690	 2145.00	 2246.09	-1376.09	 1776.96
     38.9950	 2281.00	 2242.73	-1236.73	 1774.76
     39.0210	 2265.00	 2239.42	-1249.42	 1772.57
     39.0470	 2255.00	 2236.16	-1256.16	 1770.39
     39.0730	 2247.00	 2232.94	-1260.94	 1768.21
     39.0990	 2271.00	 2229.76	-1233.76	 1766.04
     39.1250	 2299.00	 2226.63	-1202.63	 1763.89
     39.1510	 2308.00	 2223.55	-1190.55	 1761.74
     39.1770	 2230.00	 2220.51	-1265.51	 1759.59
     39.2030	 2193.00	 2217.51	-1299.51	 1757.46
     39.2290	 2206.00	 2214.56	-1283.56	 1755.33
     39.2550	 2191.00	 2211.65	-1295.65	 1753.22
     39.2810	 2324.00	 2208.78	-1159.78	 1751.11
     39.3070	 2201.00	 2205.95	-1279.95	 1749.01
     39.3330	 2198.00	 2203.17	-1280.17	 1746.91
     39.3590	 2260.00	 2200.42	-1215.42	 1744.83
     39.3850	 2261.00	 2197.72	-1211.72	 1742.75
     39.4110	 2265.00	 2195.06	-1205.06	 1740.69
     39.4370	 2248.00	 2192.43	-1219.43	 1738.63
     39.4630	 2254.00	 2189.85	-1210.85	 1736.58
     39.4890	 2268.00	 2187.31	-1194.31	 1734.53
     39.5150	 2253.00	 2184.81	-1206.81	 1732.50
     39.5410	 2204.00	 2182.34	-1253.34	 1730.47
     39.5670	 2222.00	 2179.92	-1232.92	 1728.46
     39.5930	 2209.00	 2177.54	-1243.54	 1726.45
     39.6190	 2189.00	 2175.19	-1261.19	 1724.45
     39.6450	 2180.00	 2172.89	-1267.89	 1722.46
     39.6710	 2156.00	 2170.63	-1289.63	 1720.47
     39.6970	 2148.00	 2168.40	-1295.40	 1718.50
     39.7230	 2197.00	 2166.21	-1244.21	 1716.53
     39.7490	 2207.00	 2164.07	-1232.07	 1714.57
     39.7750	 2190.00	 2161.96	-1246.96	 1712.62
     39.8010	 2162.00	 2159.89	-1272.89	 1710.68
     39.8270	 2218.00	 2157.87	-1214.87	 1708.75
     39.8530	 2226.00	 2155.88	-1204.88	 1706.83
     39.8790	 2160.00	 2153.93	-1268.93	 1704.91
     39.9050	 2158.00	 2152.02	-1269.02	 1703.00
     39.9310	 2214.00	 2150.16	-1211.16	 1701.11
     39.9570	 2219.00	 2148.33	-1204.33	 1699.22
     39.9830	 2246.00	 2146.55	-1175.55	 1697.33
     40.0090	 2190.00	 2144.80	-1229.80	 1695.46
     40.0350	 2179.00	 2143.10	-1239.10	 1693.60
     40.0610	 2208.00	 2141.44	-1208.44	 1691.74
     40.0870	 2193.00	 2139.83	-1221.83	 1689.89
     40.1130	 2153.00	 2138.25	-1260.25	 1688.06
     40.1390	 2232.00	 2136.72	-1179.72	 1686.23
     40.1650	 2257.00	 2135.24	-1153.24	 1684.40
     40.1910	 2246.00	 2133.80	-1162.80	 1682.59
     40.2170	 2219.00	 2132.40	-1188.40	 1680.79
     40.2430	 2137.00	 2131.05	-1269.05	 1678.99
     40.2690	 2192.00	 2129.75	-1212.75	 1677.20
     40.2950	 2186.00	 2128.49	-1217.49	 1675.43
     40.3210	 2165.00	 2127.28	-1237.28	 1673.66
     40.3470	 2214.00	 2126.12	-1187.12	 1671.90
     40.3730	 2236.00	 2125.01	-1164.01	 1670.14
     40.3990	 2234.00	 2123.95	-1164.95	 1668.40
     40.4250	 2203.00	 2122.94	-1194.94	 1666.66
     40.4510	 2192.00	 2121.98	-1204.98	 1664.94
     40.4770	 2228.00	 2121.08	-1168.08	 1663.22
     40.5030	 2217.00	 2120.23	-1178.23	 1661.51
     40.5290	 2172.00	 2119.43	-1222.43	 1659.81
     40.5550	 2209.00	 2118.69	-1184.69	 1658.12
     40.5810	 2204.00	 2118.01	-1189.01	 1656.43
     40.6070	 2194.00	 2117.39	-1198.39	 1654.76
     40.6330	 2230.00	 2116.87	-1161.87	 1653.09
     40.6590	 2236.00	 2116.37	-1155.37	 1651.43
     40.6850	 2184.00	 2115.94	-1206.94	 1649.79
     40.7110	 2188.00	 2115.57	-1202.57	 1648.15
     40.7370	 2204.00	 2115.26	-1186.26	 1646.51
     40.7630	 2222.00	 2115.03	-1168.03	 1644.89
     40.7890	 2203.00	 2114.86	-1186.86	 1643.28
     40.8150	 2197.00	 2114.79	-1192.79	 1641.67
     40.8410	 2232.00	 2114.77	-1157.77	 1640.07
     40.8670	 2256.00	 2114.82	-1133.82	 1638.49
     40.8930	 2229.00	 2114.96	-1160.96	 1636.91
     40.9190	 2178.00	 2115.17	-1212.17	 1635.33
     40.9450	 2215.00	 2115.47	-1175.47	 1633.77
     40.9710	 2251.00	 2115.86	-1139.86	 1632.22
     40.9970	 2289.00	 2116.33	-1102.33	 1630.67
     41.0230	 2310.00	 2116.90	-1081.90	 1629.14
     41.0490	 2266.00	 2117.55	-1126.55	 1627.61
     41.0750	 2190.00	 2118.31	-1203.31	 1626.09
     41.1010	 2304.00	 2119.17	-1090.17	 1624.58
     41.1270	 2178.00	 2120.13	-1217.13	 1623.08
     41.1530	 2204.00	 2121.20	-1192.20	 1621.58
     41.1790	 2221.00	 2122.38	-1176.38	 1620.10
     41.2050	 2202.00	 2123.67	-1196.67	 1618.62
     41.2310	 2256.00	 2125.08	-1144.08	 1617.15
     41.2570	 2220.00	 2126.62	-1181.62	 1615.69
     41.2830	 2151.00	 2128.29	-1252.29	 1614.24
     41.3090	 2184.00	 2130.09	-1221.09	 1612.80
     41.3350	 2232.00	 2132.03	-1175.03	 1611.37
     41.3610	 2228.00	 2134.11	-1181.11	 1609.94
     41.3870	 2254.00	 2136.34	-1157.34	 1608.53
     41.4130	 2196.00	 2138.72	-1217.72	 1607.12
     41.4390	 2151.00	 2141.27	-1265.27	 1605.72
     41.4650	 2228.00	 2143.98	-1190.98	 1604.33
     41.4910	 2296.00	 2146.87	-1125.87	 1602.95
     41.5170	 2270.00	 2149.94	-1154.94	 1601.57
     41.5430	 2257.00	 2153.19	-1171.19	 1600.21
     41.5690	 2212.00	 2156.64	-1219.64	 1598.85
     41.5950	 2192.00	 2160.30	-1243.30	 1597.50
     41.6210	 2268.00	 2164.17	-1171.17	 1596.16
     41.6470	 2226.00	 2168.25	-1217.25	 1594.83
     41.6730	 2299.00	 2172.57	-1148.57	 1593.51
     41.6990	 2151.00	 2177.13	-1301.13	 1592.19
     41.7250	 2306.00	 2181.93	-1150.93	 1590.89
     41.7510	 2209.00	 2187.00	-1253.00	 1589.59
     41.7770	 2252.00	 2192.33	-1215.33	 1588.30
     41.8030	 2217.00	 2197.95	-1255.95	 1587.02
     41.8290	 2157.00	 2203.85	-1321.85	 1585.75
     41.8550	 2277.00	 2210.07	-1208.07	 1584.49
     41.8810	 2195.00	 2216.59	-1296.59	 1583.23
     41.9070	 2238.00	 2223.45	-1260.45	 1581.98
     41.9330	 2213.00	 2230.65	-1292.65	 1580.75
     41.9590	 2137.00	 2238.20	-1376.20	 1579.52
     41.9850	 2169.00	 2246.12	-1352.12	 1578.29
     42.0110	 2257.00	 2254.42	-1272.42	 1577.08
     42.0370	 2204.00	 2263.11	-1334.11	 1575.88
     42.0630	 2203.00	 2272.21	-1344.21	 1574.68
     42.0890	 2231.00	 2281.74	-1325.74	 1573.49
     42.1150	 2258.00	 2291.69	-1308.69	 1572.31
     42.1410	 2183.00	 2302.10	-1394.10	 1571.14
     42.1670	 2166.00	 2312.96	-1421.96	 1569.98
     42.1930	 2177.00	 2324.29	-1422.29	 1568.82
     42.2190	 2181.00	 2336.10	-1430.10	 1567.67
     42.2450	 2207.00	 2348.39	-1416.39	 1566.53
     42.2710	 2264.00	 2361.18	-1372.18	 1565.40
     42.2970	 2183.00	 2374.48	-1466.48	 1564.28
     42.3230	 2256.00	 2388.27	-1407.27	 1563.17
     42.3490	 2249.00	 2402.56	-1428.56	 1562.06
     42.3750	 2248.00	 2417.34	-1444.34	 1560.96
     42.4010	 2280.00	 2432.62	-1427.62	 1559.87
     42.4270	 2352.00	 2448.37	-1371.37	 1558.79
     42.4530	 2355.00	 2464.57	-1384.57	 1557.72
     42.4790	 2345.00	 2481.20	-1411.20	 1556.65
     42.5050	 2379.00	 2498.23	-1394.23	 1555.59
     42.5310	 2437.00	 2515.62	-1353.62	 1554.55
     42.5570	 2428.00	 2533.32	-1380.32	 1553.50
     42.5830	 2439.00	 2551.28	-1387.28	 1552.47
     42.6090	 2503.00	 2569.43	-1341.43	 1551.45
     42.6350	 2529.00	 2587.70	-1333.70	 1550.43
     42.6610	 2590.00	 2605.99	-1290.99	 1549.42
     42.6870	 2620.00	 2624.22	-1279.22	 1548.42
     42.7130	 2635.00	 2642.28	-1282.28	 1547.42
     42.7390	 2668.00	 2660.05	-1267.05	 1546.44
     42.7650	 2757.00	 2677.41	-1195.41	 1545.46
     42.7910	 2744.00	 2694.23	-1225.23	 1544.49
     42.8170	 2760.00	 2710.36	-1225.36	 1543.53
     42.8430	 2782.00	 2725.67	-1218.67	 1542.58
     42.8690	 2750.00	 2740.00	-1265.00	 1541.63
     42.8950	 2800.00	 2753.21	-1228.21	 1540.69
     42.9210	 2845.00	 2765.17	-1195.17	 1539.76
     42.9470	 2825.00	 2775.72	-1225.72	 1538.84
     42.9730	 2860.00	 2784.76	-1199.76	 1537.92
     42.9990	 2947.00	 2792.16	-1120.16	 1537.02
     43.0250	 2898.00	 2797.83	-1174.83	 1536.12
     43.0510	 2852.00	 2801.69	-1224.69	 1535.22
     43.0770	 2924.00	 2803.68	-1154.68	 1534.34
     43.1030	 2912.00	 2803.76	-1166.76	 1533.46
     43.1290	 2863.00	 2801.92	-1213.92	 1532.60
     43.1550	 2832.00	 2798.18	-1241.18	 1531.73
     43.1810	 2802.00	 2792.56	-1265.56	 1530.88
     43.2070	 2811.00	 2785.13	-1249.13	 1530.03
     43.2330	 2836.00	 2775.96	-1214.96	 1529.20
     43.2590	 2791.00	 2765.15	-1249.15	 1528.36
     43.2850	 2747.00	 2752.81	-1280.81	 1527.54
     43.3110	 2707.00	 2739.07	-1307.07	 1526.72
     43.3370	 2628.00	 2724.06	-1371.06	 1525.92
     43.3630	 2704.00	 2707.92	-1278.92	 1525.11
     43.3890	 2694.00	 2690.80	-1271.80	 1524.32
     43.4150	 2658.00	 2672.84	-1289.84	 1523.53
     43.4410	 2555.00	 2654.18	-1374.18	 1522.75
     43.4670	 2514.00	 2634.97	-1395.97	 1521.98
     43.4930	 2506.00	 2615.33	-1384.33	 1521.22
     43.5190	 2510.00	 2595.39	-1360.39	 1520.46
     43.5450	 2477.00	 2575.27	-1373.27	 1519.71
     43.5710	 2445.00	 2555.08	-1385.08	 1518.97
     43.5970	 2427.00	 2534.90	-1382.90	 1518.23
     43.6230	 2410.00	 2514.82	-1379.82	 1517.50
     43.6490	 2368.00	 2494.93	-1401.93	 1516.78
     43.6750	 2271.00	 2475.28	-1479.28	 1516.07
     43.7010	 2232.00	 2455.94	-1498.94	 1515.36
     43.7270	 2261.00	 2436.95	-1450.95	 1514.66
     43.7530	 2209.00	 2418.35	-1484.35	 1513.97
     43.7790	 2261.00	 2400.19	-1414.19	 1513.28
     43.8050	 2266.00	 2382.46	-1391.46	 1512.60
     43.8310	 2285.00	 2365.21	-1355.21	 1511.93
     43.8570	 2200.00	 2348.44	-1423.44	 1511.27
     43.8830	 2132.00	 2332.17	-1475.17	 1510.61
     43.9090	 2180.00	 2316.39	-1411.39	 1509.96
     43.9350	 2123.00	 2301.11	-1453.11	 1509.31
     43.9610	 2183.00	 2286.33	-1378.33	 1508.68
     43.9870	 2115.00	 2272.04	-1432.04	 1508.05
     44.0130	 2079.00	 2258.24	-1454.24	 1507.42
     44.0390	 2109.00	 2244.91	-1410.91	 1506.80
     44.0650	 2066.00	 2232.06	-1441.06	 1506.19
     44.0910	 2068.00	 2219.67	-1426.67	 1505.59
     44.1170	 2068.00	 2207.72	-1414.72	 1504.99
     44.1430	 2046.00	 2196.20	-1425.20	 1504.40
     44.1690	 2000.00	 2185.11	-1460.11	 1503.82
     44.1950	 2077.00	 2174.43	-1372.43	 1503.24
     44.2210	 2036.00	 2164.14	-1403.14	 1502.67
     44.2470	 2069.00	 2154.23	-1360.23	 1502.11
     44.2730	 1996.00	 2144.69	-1423.69	 1501.55
     44.2990	 2077.00	 2135.51	-1333.51	 1501.00
     44.3250	 2022.00	 2126.66	-1379.66	 1500.45
     44.3510	 2052.00	 2118.15	-1341.15	 1499.92
     44.3770	 2059.00	 2109.96	-1325.96	 1499.38
     44.4030	 2037.00	 2102.07	-1340.07	 1498.86
     44.4290	 2091.00	 2094.47	-1278.47	 1498.34
     44.4550	 2061.00	 2087.15	-1301.15	 1497.83
     44.4810	 1996.00	 2080.11	-1359.11	 1497.32
     44.5070	 2024.00	 2073.32	-1324.32	 1496.82
     44.5330	 2031.00	 2066.79	-1310.79	 1496.32
     44.5590	 2047.00	 2060.50	-1288.50	 1495.84
     44.5850	 2004.00	 2054.43	-1325.43	 1495.35
     44.6110	 2035.00	 2048.59	-1288.59	 1494.88
     44.6370	 2001.00	 2042.96	-1316.96	 1494.41
     44.6630	 2051.00	 2037.54	-1261.54	 1493.94
     44.6890	 2005.00	 2032.32	-1302.32	 1493.49
     44.7150	 2027.00	 2027.28	-1275.28	 1493.03
     44.7410	 2153.00	 2022.42	-1144.42	 1492.59
     44.7670	 2130.00	 2017.75	-1162.75	 1492.15
     44.7930	 1965.00	 2013.24	-1323.24	 1491.71
     44.8190	 2077.00	 2008.89	-1206.89	 1491.28
     44.8450	 2017.00	 2004.70	-1262.70	 1490.86
     44.8710	 2066.00	 2000.66	-1209.66	 1490.44
     44.8970	 2017.00	 1996.77	-1254.77	 1490.03
     44.9230	 2026.00	 1993.02	-1242.02	 1489.63
     44.9490	 2065.00	 1989.40	-1199.40	 1489.23
     44.9750	 2084.00	 1985.92	-1176.92	 1488.83
     45.0010	 1992.00	 1982.56	-1265.56	 1488.44
     45.0270	 2000.00	 1979.33	-1254.33	 1488.06
     45.0530	 2007.00	 1976.21	-1244.21	 1487.68
     45.0790	 2016.00	 1973.21	-1232.21	 1487.31
     45.1050	 1999.00	 1970.32	-1246.32	 1486.95
     45.1310	 1992.00	 1967.55	-1250.55	 1486.58
     45.1570	 2039.00	 1964.87	-1200.87	 1486.23
     45.1830	 2016.00	 1962.30	-1221.30	 1485.88
     45.2090	 1999.00	 1959.83	-1235.83	 1485.53
     45.2350	 1986.00	 1957.46	-1246.46	 1485.19
     45.2610	 1999.00	 1955.18	-1231.18	 1484.86
     45.2870	 2023.00	 1952.99	-1204.99	 1484.53
     45.3130	 2025.00	 1950.90	-1200.90	 1484.21
     45.3390	 2030.00	 1948.89	-1193.89	 1483.89
     45.3650	 2016.00	 1946.97	-1205.97	 1483.57
     45.3910	 1964.00	 1945.14	-1256.14	 1483.26
     45.4170	 1987.00	 1943.39	-1231.39	 1482.96
     45.4430	 2054.00	 1941.72	-1162.72	 1482.66
     45.4690	 2032.00	 1940.13	-1183.13	 1482.37
     45.4950	 2012.00	 1938.63	-1201.63	 1482.08
     45.5210	 1984.00	 1937.20	-1228.20	 1481.79
     45.5470	 2001.00	 1935.85	-1209.85	 1481.51
     45.5730	 2026.00	 1934.58	-1183.58	 1481.24
     45.5990	 2002.00	 1933.38	-1206.38	 1480.97
     45.6250	 1971.00	 1932.26	-1236.26	 1480.71
     45.6510	 1961.00	 1931.22	-1245.22	 1480.45
     45.6770	 2006.00	 1930.25	-1199.25	 1480.19
     45.7030	 2007.00	 1929.36	-1197.36	 1479.94
     45.7290	 1973.00	 1928.54	-1230.54	 1479.69
     45.7550	 1976.00	 1927.80	-1226.80	 1479.45
     45.7810	 1975.00	 1927.14	-1227.14	 1479.21
     45.8070	 1991.00	 1926.54	-1210.54	 1478.98
     45.8330	 2001.00	 1926.03	-1200.03	 1478.75
     45.8590	 1980.00	 1925.59	-1220.59	 1478.53
     45.8850	 2000.00	 1925.23	-1200.23	 1478.31
     45.9110	 1995.00	 1924.95	-1204.95	 1478.09
     45.9370	 2004.00	 1924.75	-1195.75	 1477.88
     45.9630	 1992.00	 1924.62	-1207.62	 1477.68
     45.9890	 1944.00	 1924.58	-1255.58	 1477.47
     46.0150	 2014.00	 1924.61	-1185.61	 1477.28
     46.0410	 2029.00	 1924.73	-1170.73	 1477.08
     46.0670	 1999.00	 1924.94	-1200.94	 1476.89
     46.0930	 1980.00	 1925.22	-1220.22	 1476.71
     46.1190	 1981.00	 1925.60	-1219.60	 1476.52
     46.1450	 1964.00	 1926.06	-1237.06	 1476.35
     46.1710	 1978.00	 1926.61	-1223.61	 1476.17
     46.1970	 1980.00	 1927.25	-1222.25	 1476.00
     46.2230	 1933.00	 1927.97	-1269.97	 1475.84
     46.2490	 1966.00	 1928.80	-1237.80	 1475.67
     46.2750	 1955.00	 1929.71	-1249.71	 1475.52
     46.3010	 1861.00	 1930.71	-1344.71	 1475.36
     46.3270	 1883.00	 1931.81	-1323.81	 1475.21
     46.3530	 1880.00	 1933.01	-1328.01	 1475.06
     46.3790	 1971.00	 1934.30	-1238.30	 1474.92
     46.4050	 1988.00	 1935.68	-1222.68	 1474.78
     46.4310	 1970.00	 1937.16	-1242.16	 1474.64
     46.4570	 1955.00	 1938.73	-1258.73	 1474.51
     46.4830	 1970.00	 1940.39	-1245.39	 1474.38
     46.5090	 1873.00	 1942.14	-1344.14	 1474.25
     46.5350	 1940.00	 1943.97	-1278.97	 1474.13
     46.5610	 2017.00	 1945.88	-1203.88	 1474.01
     46.5870	 1995.00	 1947.87	-1227.87	 1473.90
     46.6130	 1883.00	 1949.92	-1341.92	 1473.78
     46.6390	 1939.00	 1952.04	-1288.04	 1473.67
     46.6650	 2007.00	 1954.21	-1222.21	 1473.57
     46.6910	 1964.00	 1956.42	-1267.42	 1473.46
     46.7170	 1883.00	 1958.67	-1350.67	 1473.36
     46.7430	 1906.00	 1960.93	-1329.93	 1473.27
     46.7690	 1879.00	 1963.20	-1359.20	 1473.17
     46.7950	 1959.00	 1965.46	-1281.46	 1473.08
     46.8210	 1947.00	 1967.69	-1295.69	 1473.00
     46.8470	 1981.00	 1969.87	-1263.87	 1472.91
     46.8730	 1954.00	 1971.98	-1292.98	 1472.83
     46.8990	 1913.00	 1974.01	-1336.01	 1472.75
     46.9250	 1944.00	 1975.93	-1306.93	 1472.67
     46.9510	 1923.00	 1977.72	-1329.72	 1472.60
     46.9770	 1982.00	 1979.36	-1272.36	 1472.53
     47.0030	 1966.00	 1980.82	-1289.82	 1472.46
     47.0290	 1896.00	 1982.09	-1361.09	 1472.40
     47.0550	 1929.00	 1983.15	-1329.15	 1472.33
     47.0810	 1941.00	 1983.99	-1317.99	 1472.27
     47.1070	 1953.00	 1984.57	-1306.57	 1472.21
     47.1330	 1954.00	 1984.91	-1305.91	 1472.16
     47.1590	 1956.00	 1984.97	-1303.97	 1472.11
     47.1850	 1912.00	 1984.77	-1347.77	 1472.06
     47.2110	 1986.00	 1984.28	-1273.28	 1472.01
     47.2370	 1955.00	 1983.53	-1303.53	 1471.96
     47.2630	 1905.00	 1982.50	-1352.50	 1471.92
     47.2890	 1931.00	 1981.20	-1325.20	 1471.88
     47.3150	 1927.00	 1979.66	-1327.66	 1471.84
     47.3410	 1873.00	 1977.87	-1379.87	 1471.80
     47.3670	 1899.00	 1975.85	-1351.85	 1471.77
     47.3930	 1866.00	 1973.63	-1382.63	 1471.74
     47.4190	 1879.00	 1971.21	-1367.21	 1471.71
     47.4450	 1889.00	 1968.63	-1354.63	 1471.68
     47.4710	 1893.00	 1965.89	-1347.89	 1471.65
     47.4970	 1912.00	 1963.03	-1326.03	 1471.63
     47.5230	 1870.00	 1960.06	-1365.06	 1471.60
     47.5490	 1874.00	 1957.00	-1358.00	 1471.58
     47.5750	 1947.00	 1953.88	-1281.88	 1471.56
     47.6010	 1962.00	 1950.70	-1263.70	 1471.55
     47.6270	 1949.00	 1947.50	-1273.50	 1471.53
     47.6530	 1962.00	 1944.28	-1257.28	 1471.52
     47.6790	 1891.00	 1941.06	-1325.06	 1471.51
     47.7050	 1886.00	 1937.85	-1326.85	 1471.50
     47.7310	 1879.00	 1934.67	-1330.67	 1471.49
     47.7570	 1934.00	 1931.52	-1272.52	 1471.48
     47.7830	 1940.00	 1928.42	-1263.42	 1471.47
     47.8090	 1918.00	 1925.38	-1282.38	 1471.47
     47.8350	 1956.00	 1922.39	-1241.39	 1471.47
     47.8610	 1962.00	 1919.46	-1232.46	 1471.47
     47.8870	 1905.00	 1916.61	-1286.61	 1471.47
     47.9130	 1874.00	 1913.83	-1314.83	 1471.47
     47.9390	 1865.00	 1911.12	-1321.12	 1471.47
     47.9650	 1890.00	 1908.49	-1293.49	 1471.47
     47.9910	 1910.00	 1905.94	-1270.94	 1471.48
     48.0170	 1912.00	 1903.46	-1266.46	 1471.48
     48.0430	 1931.00	 1901.07	-1245.07	 1471.49
     48.0690	 1934.00	 1898.75	-1239.75	 1471.50
     48.0950	 1868.00	 1896.51	-1303.51	 1471.51
     48.1210	 1839.00	 1894.19	-1330.19	 1471.52
     48.1470	 1900.00	 1892.03	-1267.03	 1471.53
     48.1730	 1953.00	 1890.02	-1212.02	 1471.54
     48.1990	 1970.00	 1888.07	-1193.07	 1471.55
     48.2250	 1954.00	 1886.20	-1207.20	 1471.57
     48.2510	 1933.00	 1884.39	-1226.39	 1471.58
     48.2770	 1948.00	 1882.66	-1209.66	 1471.60
     48.3030	 1934.00	 1880.98	-1221.98	 1471.61
     48.3290	 1885.00	 1879.37	-1269.37	 1471.63
     48.3550	 1851.00	 1877.81	-1301.81	 1471.65
     48.3810	 1849.00	 1876.32	-1302.32	 1471.67
     48.4070	 1877.00	 1874.88	-1272.88	 1471.69
     48.4330	 1895.00	 1873.49	-1253.49	 1471.70
     48.4590	 1886.00	 1872.16	-1261.16	 1471.72
     48.4850	 1844.00	 1870.87	-1301.87	 1471.74
     48.5110	 1841.00	 1869.64	-1303.64	 1471.76
     48.5370	 1847.00	 1868.45	-1296.45	 1471.79
     48.5630	 1874.00	 1867.30	-1268.30	 1471.81
     48.5890	 1930.00	 1866.20	-1211.20	 1471.83
     48.6150	 1879.00	 1865.14	-1261.14	 1471.85
     48.6410	 1841.00	 1864.12	-1298.12	 1471.87
     48.6670	 1880.00	 1863.14	-1258.14	 1471.89
     48.6930	 1843.00	 1862.19	-1294.19	 1471.92
     48.7190	 1847.00	 1861.28	-1289.28	 1471.94
     48.7450	 1844.00	 1860.40	-1291.40	 1471.96
     48.7710	 1845.00	 1859.56	-1289.56	 1471.98
     48.7970	 1877.00	 1858.74	-1256.74	 1472.01
     48.8230	 1879.00	 1857.96	-1253.96	 1472.03
     48.8490	 1922.00	 1857.21	-1210.21	 1472.05
     48.8750	 1861.00	 1856.48	-1270.48	 1472.07
     48.9010	 1868.00	 1855.78	-1262.78	 1472.10
     48.9270	 1908.00	 1855.10	-1222.10	 1472.12
     48.9530	 1897.00	 1854.46	-1232.46	 1472.14
     48.9790	 1975.00	 1853.83	-1153.83	 1472.16
     49.0050	 1852.00	 1853.23	-1276.23	 1472.18
     49.0310	 1886.00	 1852.65	-1241.65	 1472.20
     49.0570	 1884.00	 1852.09	-1243.09	 1472.23
     49.0830	 1798.00	 1851.55	-1328.55	 1472.25
     49.1090	 1898.00	 1851.03	-1228.03	 1472.27
     49.1350	 1883.00	 1850.53	-1242.53	 1472.28
     49.1610	 1899.00	 1850.05	-1226.05	 1472.30
     49.1870	 1847.00	 1849.59	-1277.59	 1472.32
     49.2130	 1846.00	 1849.14	-1278.14	 1472.34
     49.2390	 1807.00	 1848.71	-1316.71	 1472.36
     49.2650	 1841.00	 1848.30	-1282.30	 1472.37
     49.2910	 1820.00	 1847.90	-1302.90	 1472.39
     49.3170	 1908.00	 1847.52	-1214.52	 1472.40
     49.3430	 1853.00	 1847.15	-1269.15	 1472.42
     49.3690	 1907.00	 1846.80	-1214.80	 1472.43
     49.3950	 1762.00	 1846.45	-1359.45	 1472.45
     49.4210	 1790.00	 1846.13	-1331.13	 1472.46
     49.4470	 1846.00	 1845.81	-1274.81	 1472.47
     49.4730	 1864.00	 1845.51	-1256.51	 1472.48
     49.4990	 1823.00	 1845.22	-1297.22	 1472.49
     49.5250	 1778.00	 1844.94	-1341.94	 1472.50
     49.5510	 1802.00	 1844.68	-1317.68	 1472.50
     49.5770	 1854.00	 1844.42	-1265.42	 1472.51
     49.6030	 1956.00	 1844.17	-1163.17	 1472.52
     49.6290	 1851.00	 1843.94	-1267.94	 1472.52
     49.6550	 1855.00	 1843.71	-1263.71	 1472.52
     49.6810	 1905.00	 1843.50	-1213.50	 1472.52
     49.7070	 1861.00	 1843.29	-1257.29	 1472.52
     49.7330	 1863.00	 1843.10	-1255.10	 1472.52
     49.7590	 1821.00	 1842.91	-1296.91	 1472.52
     49.7850	 1908.00	 1842.73	-1209.73	 1472.52
     49.8110	 1834.00	 1842.57	-1283.57	 1472.51
     49.8370	 1871.00	 1842.41	-1246.41	 1472.51
     49.8630	 1818.00	 1842.25	-1299.25	 1472.50
     49.8890	 1886.00	 1842.11	-1231.11	 1472.49
     49.9150	 1843.00	 1841.98	-1273.98	 1472.48
     49.9410	 1917.00	 1841.85	-1199.85	 1472.47
     49.9670	 1939.00	 1841.73	-1177.73	 1472.46
     49.9930	 1909.00	 1841.62	-1207.62	 1472.44
     50.0190	 1880.00	 1841.51	-1236.51	 1472.43
     50.0450	 1928.00	 1841.42	-1188.42	 1472.41
     50.0710	 1863.00	 1841.33	-1253.33	 1472.39
     50.0970	 1831.00	 1841.24	-1285.24	 1472.37
     50.1230	 1892.00	 1841.17	-1224.17	 1472.34
     50.1490	 1911.00	 1841.10	-1205.10	 1472.32
     50.1750	 1917.00	 1841.04	-1199.04	 1472.29
     50.2010	 1864.00	 1840.99	-1251.99	 1472.26
     50.2270	 1844.00	 1840.94	-1271.94	 1472.23
     50.2530	 1814.00	 1840.90	-1301.90	 1472.20
     50.2790	 1851.00	 1840.87	-1264.87	 1472.17
     50.3050	 1879.00	 1840.84	-1236.84	 1472.13
     50.3310	 1843.00	 1840.82	-1272.82	 1472.09
     50.3570	 1882.00	 1840.81	-1233.81	 1472.05
     50.3830	 1943.00	 1840.80	-1172.80	 1472.01
     50.4090	 1921.00	 1840.80	-1194.80	 1471.97
     50.4350	 1854.00	 1840.81	-1261.81	 1471.92
     50.4610	 1876.00	 1840.82	-1239.82	 1471.87
     50.4870	 1860.00	 1840.84	-1255.84	 1471.82
     50.5130	 1861.00	 1840.87	-1254.87	 1471.77
     50.5390	 1891.00	 1840.90	-1224.90	 1471.72
     50.5650	 1909.00	 1840.94	-1206.94	 1471.66
     50.5910	 1866.00	 1840.99	-1249.99	 1471.60
     50.6170	 1840.00	 1841.05	-1276.05	 1471.54
     50.6430	 1875.00	 1841.11	-1241.11	 1471.48
     50.6690	 1866.00	 1841.18	-1250.18	 1471.41
     50.6950	 1849.00	 1841.26	-1267.26	 1471.34
     50.7210	 1824.00	 1841.34	-1292.34	 1471.27
     50.7470	 1807.00	 1841.43	-1309.43	 1471.20
     50.7730	 1889.00	 1841.53	-1227.53	 1471.12
     50.7990	 1929.00	 1841.64	-1187.64	 1471.05
     50.8250	 1876.00	 1841.75	-1240.75	 1470.97
     50.8510	 1874.00	 1841.88	-1242.88	 1470.89
     50.8770	 1900.00	 1842.01	-1217.01	 1470.80
     50.9030	 1935.00	 1842.15	-1182.15	 1470.71
     50.9290	 1930.00	 1842.30	-1187.30	 1470.62
     50.9550	 1895.00	 1842.46	-1222.46	 1470.53
     50.9810	 1903.00	 1842.62	-1214.62	 1470.44
     51.0070	 1873.00	 1842.80	-1244.80	 1470.34
     51.0330	 1874.00	 1842.98	-1243.98	 1470.24
     51.0590	 1907.00	 1843.18	-1211.18	 1470.13
     51.0850	 1891.00	 1843.39	-1227.39	 1470.03
     51.1110	 1863.00	 1843.60	-1255.60	 1469.92
     51.1370	 1790.00	 1843.83	-1328.83	 1469.81
     51.1630	 1766.00	 1844.07	-1353.07	 1469.70
     51.1890	 1886.00	 1844.31	-1233.31	 1469.58
     51.2150	 1886.00	 1844.57	-1233.57	 1469.46
     51.2410	 1865.00	 1844.85	-1254.85	 1469.34
     51.2670	 1849.00	 1845.13	-1271.13	 1469.21
     51.2930	 1808.00	 1845.43	-1312.43	 1469.08
     51.3190	 1802.00	 1845.74	-1318.74	 1468.95
     51.3450	 1826.00	 1846.07	-1295.07	 1468.82
     51.3710	 1866.00	 1846.41	-1255.41	 1468.68
     51.3970	 1843.00	 1846.76	-1278.76	 1468.54
     51.4230	 1895.00	 1847.13	-1227.13	 1468.40
     51.4490	 1880.00	 1847.52	-1242.52	 1468.25
     51.4750	 1864.00	 1847.92	-1258.92	 1468.10
     51.5010	 1873.00	 1848.34	-1250.34	 1467.95
     51.5270	 1862.00	 1848.78	-1261.78	 1467.80
     51.5530	 1824.00	 1849.23	-1300.23	 1467.64
     51.5790	 1856.00	 1849.71	-1268.71	 1467.48
     51.6050	 1869.00	 1850.20	-1256.20	 1467.32
     51.6310	 1830.00	 1850.72	-1295.72	 1467.15
     51.6570	 1818.00	 1851.26	-1308.26	 1466.98
     51.6830	 1856.00	 1851.82	-1270.82	 1466.81
     51.7090	 1872.00	 1852.40	-1255.40	 1466.63
     51.7350	 1879.00	 1853.01	-1249.01	 1466.45
     51.7610	 1829.00	 1853.64	-1299.64	 1466.27
     51.7870	 1844.00	 1854.30	-1285.30	 1466.08
     51.8130	 1804.00	 1854.99	-1325.99	 1465.89
     51.8390	 1794.00	 1855.71	-1336.71	 1465.70
     51.8650	 1828.00	 1856.45	-1303.45	 1465.50
     51.8910	 1852.00	 1857.23	-1280.23	 1465.30
     51.9170	 1879.00	 1858.04	-1254.04	 1465.10
     51.9430	 1877.00	 1858.89	-1256.89	 1464.90
     51.9690	 1834.00	 1859.77	-1300.77	 1464.69
     51.9950	 1802.00	 1860.68	-1333.68	 1464.47
     52.0210	 1804.00	 1861.64	-1332.64	 1464.26
     52.0470	 1902.00	 1862.63	-1235.63	 1464.04
     52.0730	 1904.00	 1863.67	-1234.67	 1463.82
     52.0990	 1891.00	 1864.74	-1248.74	 1463.59
     52.1250	 1878.00	 1865.87	-1262.87	 1463.36
     52.1510	 1767.00	 1867.04	-1375.04	 1463.13
     52.1770	 1819.00	 1868.26	-1324.26	 1462.89
     52.2030	 1804.00	 1869.53	-1340.53	 1462.65
     52.2290	 1902.00	 1870.85	-1243.85	 1462.41
     52.2550	 1921.00	 1872.23	-1226.23	 1462.16
     52.2810	 1797.00	 1873.67	-1351.67	 1461.91
     52.3070	 1786.00	 1875.16	-1364.16	 1461.66
     52.3330	 1854.00	 1876.72	-1297.72	 1461.40
     52.3590	 1857.00	 1878.34	-1296.34	 1461.14
     52.3850	 1870.00	 1880.02	-1285.02	 1460.87
     52.4110	 1825.00	 1881.77	-1331.77	 1460.61
     52.4370	 1829.00	 1883.59	-1329.59	 1460.34
     52.4630	 1882.00	 1885.49	-1278.49	 1460.06
     52.4890	 1825.00	 1887.46	-1337.46	 1459.78
     52.5150	 1860.00	 1889.50	-1304.50	 1459.50
     52.5410	 1913.00	 1891.62	-1253.62	 1459.21
     52.5670	 1877.00	 1893.82	-1291.82	 1458.92
     52.5930	 1866.00	 1896.09	-1305.09	 1458.63
     52.6190	 1834.00	 1898.45	-1339.45	 1458.33
     52.6450	 1875.00	 1900.89	-1300.89	 1458.03
     52.6710	 1929.00	 1903.41	-1249.41	 1457.73
     52.6970	 1924.00	 1906.02	-1257.02	 1457.42
     52.7230	 1820.00	 1908.70	-1363.70	 1457.11
     52.7490	 1851.00	 1911.46	-1335.46	 1456.80
     52.7750	 1886.00	 1914.30	-1303.30	 1456.48
     52.8010	 1897.00	 1917.21	-1295.21	 1456.16
     52.8270	 1924.00	 1920.19	-1271.19	 1455.83
     52.8530	 1898.00	 1923.23	-1300.23	 1455.50
     52.8790	 1934.00	 1926.33	-1267.33	 1455.17
     52.9050	 1905.00	 1929.48	-1299.48	 1454.83
     52.9310	 1889.00	 1932.67	-1318.67	 1454.49
     52.9570	 1916.00	 1935.89	-1294.89	 1454.14
     52.9830	 1891.00	 1939.13	-1323.13	 1453.79
     53.0090	 1917.00	 1942.38	-1300.38	 1453.44
     53.0350	 1909.00	 1945.61	-1311.61	 1453.09
     53.0610	 1956.00	 1948.82	-1267.82	 1452.73
     53.0870	 1924.00	 1951.99	-1302.99	 1452.36
     53.1130	 1933.00	 1955.10	-1297.10	 1452.00
     53.1390	 1973.00	 1958.12	-1260.12	 1451.62
     53.1650	 2016.00	 1961.04	-1220.04	 1451.25
     53.1910	 1972.00	 1963.83	-1266.83	 1450.87
     53.2170	 1988.00	 1966.47	-1253.47	 1450.49
     53.2430	 1989.00	 1968.95	-1254.95	 1450.10
     53.2690	 1946.00	 1971.23	-1300.23	 1449.71
     53.2950	 1948.00	 1973.30	-1300.30	 1449.32
     53.3210	 1960.00	 1975.13	-1290.13	 1448.92
     53.3470	 1991.00	 1976.71	-1260.71	 1448.52
     53.3730	 2016.00	 1978.02	-1237.02	 1448.12
     53.3990	 2071.00	 1979.05	-1183.05	 1447.71
     53.4250	 2086.00	 1979.78	-1168.78	 1447.29
     53.4510	 2002.00	 1980.22	-1253.22	 1446.88
     53.4770	 2016.00	 1980.34	-1239.34	 1446.46
     53.5030	 2017.00	 1980.16	-1238.16	 1446.03
     53.5290	 1981.00	 1979.67	-1273.67	 1445.61
     53.5550	 2001.00	 1978.89	-1252.89	 1445.17
     53.5810	 1968.00	 1977.81	-1284.81	 1444.74
     53.6070	 1999.00	 1976.45	-1252.45	 1444.30
     53.6330	 1987.00	 1974.84	-1262.84	 1443.86
     53.6590	 1928.00	 1972.97	-1319.97	 1443.41
     53.6850	 1953.00	 1970.88	-1292.88	 1442.96
     53.7110	 1960.00	 1968.58	-1283.58	 1442.50
     53.7370	 2009.00	 1966.10	-1232.10	 1442.05
     53.7630	 1971.00	 1963.46	-1267.46	 1441.58
     53.7890	 1922.00	 1960.67	-1313.67	 1441.12
     53.8150	 1909.00	 1957.77	-1323.77	 1440.65
     53.8410	 1899.00	 1954.78	-1330.78	 1440.18
     53.8670	 1903.00	 1951.71	-1323.71	 1439.70
     53.8930	 1951.00	 1948.59	-1272.59	 1439.22
     53.9190	 1974.00	 1945.44	-1246.44	 1438.73
     53.9450	 1967.00	 1942.27	-1250.27	 1438.24
     53.9710	 1951.00	 1939.10	-1263.10	 1437.75
     53.9970	 2000.00	 1935.95	-1210.95	 1437.26
     54.0230	 1934.00	 1932.82	-1273.82	 1436.76
     54.0490	 1925.00	 1929.74	-1279.74	 1436.25
     54.0750	 1988.00	 1926.72	-1213.72	 1435.74
     54.1010	 1938.00	 1923.75	-1260.75	 1435.23
     54.1270	 1908.00	 1920.85	-1287.85	 1434.72
     54.1530	 1965.00	 1918.03	-1228.03	 1434.20
     54.1790	 1952.00	 1915.29	-1238.29	 1433.68
     54.2050	 1869.00	 1912.64	-1318.64	 1433.15
     54.2310	 1909.00	 1910.08	-1276.08	 1432.62
     54.2570	 1889.00	 1907.61	-1293.61	 1432.09
     54.2830	 1894.00	 1905.24	-1286.24	 1431.55
     54.3090	 1942.00	 1902.96	-1235.96	 1431.01
     54.3350	 1843.00	 1900.79	-1332.79	 1430.47
     54.3610	 1875.00	 1898.71	-1298.71	 1429.92
     54.3870	 1920.00	 1896.73	-1251.73	 1429.36
     54.4130	 1862.00	 1894.86	-1307.86	 1428.81
     54.4390	 1801.00	 1893.08	-1367.08	 1428.25
     54.4650	 1902.00	 1891.40	-1264.40	 1427.69
     54.4910	 1899.00	 1889.82	-1265.82	 1427.12
     54.5170	 1912.00	 1888.34	-1251.34	 1426.55
     54.5430	 1881.00	 1886.95	-1280.95	 1425.98
     54.5690	 1859.00	 1885.66	-1301.66	 1425.40
     54.5950	 1825.00	 1884.46	-1334.46	 1424.82
     54.6210	 1960.00	 1883.36	-1198.36	 1424.23
     54.6470	 1908.00	 1882.35	-1249.35	 1423.64
     54.6730	 1845.00	 1881.43	-1311.43	 1423.05
     54.6990	 1797.00	 1880.60	-1358.60	 1422.46
     54.7250	 1910.00	 1879.86	-1244.86	 1421.86
     54.7510	 1877.00	 1879.21	-1277.21	 1421.26
     54.7770	 1906.00	 1878.65	-1247.65	 1420.65
     54.8030	 1839.00	 1878.18	-1314.18	 1420.04
     54.8290	 1875.00	 1877.79	-1277.79	 1419.43
     54.8550	 1918.00	 1877.50	-1234.50	 1418.81
     54.8810	 1834.00	 1877.29	-1318.29	 1418.19
     54.9070	 1879.00	 1877.17	-1273.17	 1417.57
     54.9330	 1847.00	 1877.13	-1305.13	 1416.94
     54.9590	 1856.00	 1877.19	-1296.19	 1416.31
     54.9850	 1897.00	 1877.33	-1255.33	 1415.67
     55.0110	 1896.00	 1877.56	-1256.56	 1415.04
     55.0370	 1884.00	 1877.88	-1268.88	 1414.39
     55.0630	 1870.00	 1878.30	-1283.30	 1413.75
     55.0890	 1902.00	 1878.80	-1251.80	 1413.10
     55.1150	 1890.00	 1879.40	-1264.40	 1412.45
     55.1410	 1845.00	 1880.09	-1310.09	 1411.80
     55.1670	 1858.00	 1880.87	-1297.87	 1411.14
     55.1930	 1838.00	 1881.76	-1318.76	 1410.48
     55.2190	 1889.00	 1882.74	-1268.74	 1409.81
     55.2450	 1858.00	 1883.82	-1300.82	 1409.15
     55.2710	 1925.00	 1885.01	-1235.01	 1408.47
     55.2970	 1889.00	 1886.31	-1272.31	 1407.80
     55.3230	 1819.00	 1887.71	-1343.71	 1407.12
     55.3490	 1869.00	 1889.22	-1295.22	 1406.44
     55.3750	 1894.00	 1890.85	-1271.85	 1405.76
     55.4010	 1847.00	 1892.59	-1320.59	 1405.07
     55.4270	 1824.00	 1894.46	-1345.46	 1404.38
     55.4530	 1831.00	 1896.45	-1340.45	 1403.69
     55.4790	 1827.00	 1898.57	-1346.57	 1402.99
     55.5050	 1827.00	 1900.82	-1348.82	 1402.29
     55.5310	 1882.00	 1903.21	-1296.21	 1401.59
     55.5570	 1867.00	 1905.74	-1313.74	 1400.88
     55.5830	 1824.00	 1908.41	-1359.41	 1400.17
     55.6090	 1830.00	 1911.24	-1356.24	 1399.46
     55.6350	 1869.00	 1914.22	-1320.22	 1398.74
     55.6610	 1914.00	 1917.36	-1278.36	 1398.02
     55.6870	 1918.00	 1920.66	-1277.66	 1397.30
     55.7130	 1920.00	 1924.14	-1279.14	 1396.58
     55.7390	 1901.00	 1927.80	-1301.80	 1395.85
     55.7650	 1865.00	 1931.64	-1341.64	 1395.12
     55.7910	 1858.00	 1935.67	-1352.67	 1394.39
     55.8170	 1937.00	 1939.89	-1277.89	 1393.65
     55.8430	 1962.00	 1944.32	-1257.32	 1392.91
     55.8690	 1937.00	 1948.95	-1286.95	 1392.17
     55.8950	 1888.00	 1953.80	-1340.80	 1391.42
     55.9210	 1863.00	 1958.87	-1370.87	 1390.67
     55.9470	 1865.00	 1964.16	-1374.16	 1389.92
     55.9730	 1915.00	 1969.69	-1329.69	 1389.17
     55.9990	 1946.00	 1975.46	-1304.46	 1388.41
     56.0250	 1896.00	 1981.47	-1360.47	 1387.65
     56.0510	 1899.00	 1987.72	-1363.72	 1386.89
     56.0770	 1959.00	 1994.23	-1310.23	 1386.13
     56.1030	 2017.00	 2001.00	-1259.00	 1385.36
     56.1290	 1991.00	 2008.02	-1292.02	 1384.59
     56.1550	 1957.00	 2015.31	-1333.31	 1383.82
     56.1810	 1997.00	 2022.85	-1300.85	 1383.04
     56.2070	 2008.00	 2030.66	-1297.66	 1382.26
     56.2330	 1981.00	 2038.72	-1332.72	 1381.48
     56.2590	 1968.00	 2047.03	-1354.03	 1380.70
     56.2850	 1991.00	 2055.59	-1339.59	 1379.91
     56.3110	 1993.00	 2064.38	-1346.38	 1379.12
     56.3370	 2005.00	 2073.39	-1343.39	 1378.33
     56.3630	 2051.00	 2082.61	-1306.61	 1377.54
     56.3890	 2085.00	 2092.02	-1282.02	 1376.74
     56.4150	 2048.00	 2101.59	-1328.59	 1375.95
     56.4410	 2041.00	 2111.30	-1345.30	 1375.15
     56.4670	 2022.00	 2121.12	-1374.12	 1374.34
     56.4930	 1992.00	 2131.01	-1414.01	 1373.54
     56.5190	 2075.00	 2140.94	-1340.94	 1372.73
     56.5450	 2108.00	 2150.85	-1317.85	 1371.92
     56.5710	 2126.00	 2160.70	-1309.70	 1371.11
     56.5970	 2132.00	 2170.43	-1313.43	 1370.29
     56.6230	 2086.00	 2179.99	-1368.99	 1369.47
     56.6490	 2167.00	 2189.32	-1297.32	 1368.66
     56.6750	 2148.00	 2198.34	-1325.34	 1367.83
     56.7010	 2209.00	 2207.00	-1273.00	 1367.01
     56.7270	 2206.00	 2215.22	-1284.22	 1366.18
     56.7530	 2221.00	 2222.93	-1276.93	 1365.36
     56.7790	 2220.00	 2230.07	-1285.07	 1364.53
     56.8050	 2173.00	 2236.56	-1338.56	 1363.69
     56.8310	 2230.00	 2242.33	-1287.33	 1362.86
     56.8570	 2275.00	 2247.34	-1247.34	 1362.02
     56.8830	 2256.00	 2251.51	-1270.51	 1361.19
     56.9090	 2274.00	 2254.81	-1255.81	 1360.35
     56.9350	 2314.00	 2257.19	-1218.19	 1359.50
     56.9610	 2227.00	 2258.62	-1306.62	 1358.66
     56.9870	 2265.00	 2259.08	-1269.08	 1357.81
     57.0130	 2317.00	 2258.55	-1216.55	 1356.97
     57.0390	 2264.00	 2257.04	-1268.04	 1356.12
     57.0650	 2258.00	 2254.55	-1271.55	 1355.26
     57.0910	 2243.00	 2251.10	-1283.10	 1354.41
     57.1170	 2243.00	 2246.73	-1278.73	 1353.56
     57.1430	 2277.00	 2241.47	-1239.47	 1352.70
     57.1690	 2283.00	 2235.37	-1227.37	 1351.84
     57.1950	 2226.00	 2228.47	-1277.47	 1350.98
     57.2210	 2186.00	 2220.85	-1309.85	 1350.12
     57.2470	 2242.00	 2212.56	-1245.56	 1349.25
     57.2730	 2213.00	 2203.68	-1265.68	 1348.39
     57.2990	 2282.00	 2194.26	-1187.26	 1347.52
     57.3250	 2257.00	 2184.39	-1202.39	 1346.65
     57.3510	 2195.00	 2174.12	-1254.12	 1345.78
     57.3770	 2216.00	 2163.53	-1222.53	 1344.91
     57.4030	 2212.00	 2152.68	-1215.68	 1344.04
     57.4290	 2116.00	 2141.64	-1300.64	 1343.16
     57.4550	 2137.00	 2130.46	-1268.46	 1342.29
     57.4810	 2149.00	 2119.19	-1245.19	 1341.41
     57.5070	 2117.00	 2107.90	-1265.90	 1340.53
     57.5330	 2156.00	 2096.62	-1215.62	 1339.65
     57.5590	 2076.00	 2085.40	-1284.40	 1338.77
     57.5850	 2010.00	 2074.27	-1339.27	 1337.89
     57.6110	 2061.00	 2063.26	-1277.26	 1337.01
     57.6370	 2059.00	 2052.41	-1268.41	 1336.12
     57.6630	 1984.00	 2041.74	-1332.74	 1335.23
     57.6890	 2007.00	 2031.26	-1299.26	 1334.35
     57.7150	 1993.00	 2021.00	-1303.00	 1333.46
     57.7410	 1977.00	 2010.97	-1308.97	 1332.57
     57.7670	 2017.00	 2001.18	-1259.18	 1331.68
     57.7930	 1962.00	 1991.64	-1304.64	 1330.79
     57.8190	 1955.00	 1982.35	-1302.35	 1329.89
     57.8450	 1940.00	 1973.32	-1308.32	 1329.00
     57.8710	 1970.00	 1964.54	-1269.54	 1328.10
     57.8970	 1970.00	 1956.03	-1261.03	 1327.21
     57.9230	 1904.00	 1947.78	-1318.78	 1326.31
     57.9490	 1852.00	 1939.78	-1362.78	 1325.41
     57.9750	 1871.00	 1932.04	-1336.04	 1324.52
     58.0010	 1872.00	 1924.55	-1327.55	 1323.62
     58.0270	 1893.00	 1917.30	-1299.30	 1322.72
     58.0530	 1908.00	 1910.30	-1277.30	 1321.82
     58.0790	 1869.00	 1903.53	-1309.53	 1320.91
     58.1050	 1865.00	 1896.99	-1306.99	 1320.01
     58.1310	 1912.00	 1890.67	-1253.67	 1319.11
     58.1570	 1809.00	 1884.56	-1350.56	 1318.21
     58.1830	 1820.00	 1878.67	-1333.67	 1317.30
     58.2090	 1877.00	 1872.99	-1270.99	 1316.40
     58.2350	 1838.00	 1867.50	-1304.50	 1315.49
     58.2610	 1888.00	 1862.20	-1249.20	 1314.59
     58.2870	 1827.00	 1857.09	-1305.09	 1313.68
     58.3130	 1859.00	 1852.16	-1268.16	 1312.77
     58.3390	 1875.00	 1847.40	-1247.40	 1311.86
     58.3650	 1875.00	 1842.81	-1242.81	 1310.96
     58.3910	 1850.00	 1838.38	-1263.38	 1310.05
     58.4170	 1773.00	 1834.11	-1336.11	 1309.14
     58.4430	 1889.00	 1829.99	-1215.99	 1308.23
     58.4690	 1870.00	 1826.01	-1231.01	 1307.32
     58.4950	 1818.00	 1822.18	-1279.18	 1306.41
     58.5210	 1862.00	 1818.48	-1231.48	 1305.50
     58.5470	 1894.00	 1814.91	-1195.91	 1304.59
     58.5730	 1845.00	 1811.47	-1241.47	 1303.68
     58.5990	 1818.00	 1808.15	-1265.15	 1302.77
     58.6250	 1824.00	 1804.95	-1255.95	 1301.86
     58.6510	 1805.00	 1801.87	-1271.87	 1300.95
     58.6770	 1819.00	 1798.90	-1254.90	 1300.04
     58.7030	 1817.00	 1796.04	-1254.04	 1299.13
     58.7290	 1813.00	 1793.28	-1255.28	 1298.22
     58.7550	 1823.00	 1790.62	-1242.62	 1297.31
     58.7810	 1790.00	 1788.06	-1273.06	 1296.40
     58.8070	 1818.00	 1785.59	-1242.59	 1295.49
     58.8330	 1906.00	 1783.22	-1152.22	 1294.58
     58.8590	 1914.00	 1780.94	-1141.94	 1293.67
     58.8850	 1878.00	 1778.74	-1175.74	 1292.76
     58.9110	 1857.00	 1776.64	-1194.64	 1291.85
     58.9370	 1844.00	 1774.61	-1205.61	 1290.94
     58.9630	 1825.00	 1772.67	-1222.67	 1290.03
     58.9890	 1783.00	 1770.80	-1262.80	 1289.12
     59.0150	 1807.00	 1769.01	-1237.01	 1288.22
     59.0410	 1857.00	 1767.30	-1185.30	 1287.31
     59.0670	 1834.00	 1765.66	-1206.66	 1286.40
     59.0930	 1850.00	 1764.10	-1189.10	 1285.49
     59.1190	 1821.00	 1762.60	-1216.60	 1284.59
     59.1450	 1846.00	 1761.18	-1190.18	 1283.68
     59.1710	 1874.00	 1759.83	-1160.83	 1282.77
     59.1970	 1881.00	 1758.54	-1152.54	 1281.87
     59.2230	 1849.00	 1757.32	-1183.32	 1280.96
     59.2490	 1880.00	 1756.17	-1151.17	 1280.06
     59.2750	 1867.00	 1755.08	-1163.08	 1279.16
     59.3010	 1830.00	 1754.05	-1199.05	 1278.25
     59.3270	 1862.00	 1753.09	-1166.09	 1277.35
     59.3530	 1891.00	 1752.19	-1136.19	 1276.45
     59.3790	 1799.00	 1751.36	-1227.36	 1275.55
     59.4050	 1846.00	 1750.59	-1179.59	 1274.65
     59.4310	 1866.00	 1749.88	-1158.88	 1273.75
     59.4570	 1829.00	 1749.23	-1195.23	 1272.85
     59.4830	 1867.00	 1748.64	-1156.64	 1271.95
     59.5090	 1944.00	 1748.12	-1079.12	 1271.05
     59.5350	 1930.00	 1747.65	-1092.65	 1270.16
     59.5610	 1915.00	 1747.25	-1107.25	 1269.26
     59.5870	 1836.00	 1746.91	-1185.91	 1268.37
     59.6130	 1901.00	 1746.63	-1120.63	 1267.48
     59.6390	 1850.00	 1746.42	-1171.42	 1266.58
     59.6650	 1836.00	 1746.26	-1185.26	 1265.69
     59.6910	 1829.00	 1746.17	-1192.17	 1264.80
     59.7170	 1885.00	 1746.15	-1136.15	 1263.91
     59.7430	 1854.00	 1746.18	-1167.18	 1263.03
     59.7690	 1779.00	 1746.29	-1242.29	 1262.14
     59.7950	 1862.00	 1746.45	-1159.45	 1261.26
     59.8210	 1857.00	 1746.69	-1164.69	 1260.37
     59.8470	 1893.00	 1746.99	-1128.99	 1259.49
     59.8730	 1852.00	 1747.36	-1170.36	 1258.61
     59.8990	 1885.00	 1747.80	-1137.80	 1257.73
     59.9250	 1846.00	 1748.31	-1177.31	 1256.85
     59.9510	 1813.00	 1748.89	-1210.89	 1255.97
     59.9770	 1815.00	 1749.54	-1209.54	 1255.09
     60.0030	 1886.00	 1750.27	-1139.27	 1254.22
     60.0290	 1786.00	 1751.07	-1240.07	 1253.34
     60.0550	 1807.00	 1751.95	-1219.95	 1252.47
     60.0810	 1907.00	 1752.91	-1120.91	 1251.60
     60.1070	 1917.00	 1753.95	-1111.95	 1250.73
     60.1330	 1922.00	 1755.07	-1108.07	 1249.87
     60.1590	 1909.00	 1756.28	-1122.28	 1249.00
     60.1850	 1802.00	 1757.57	-1230.57	 1248.14
     60.2110	 1831.00	 1758.95	-1202.95	 1247.27
     60.2370	 1782.00	 1760.43	-1253.43	 1246.41
     60.2630	 1820.00	 1762.00	-1217.00	 1245.55
     60.2890	 1830.00	 1763.66	-1208.66	 1244.69
     60.3150	 1899.00	 1765.42	-1141.42	 1243.84
     60.3410	 1891.00	 1767.29	-1151.29	 1242.98
     60.3670	 1819.00	 1769.26	-1225.26	 1242.13
     60.3930	 1829.00	 1771.34	-1217.34	 1241.28
     60.4190	 1850.00	 1773.52	-1198.52	 1240.43
     60.4450	 1899.00	 1775.83	-1151.83	 1239.58
     60.4710	 1818.00	 1778.25	-1235.25	 1238.74
     60.4970	 1846.00	 1780.79	-1209.79	 1237.90
     60.5230	 1877.00	 1783.47	-1181.47	 1237.05
     60.5490	 1847.00	 1786.27	-1214.27	 1236.21
     60.5750	 1830.00	 1789.20	-1234.20	 1235.38
     60.6010	 1921.00	 1791.86	-1145.86	 1234.54
     60.6270	 1926.00	 1795.08	-1144.08	 1233.71
     60.6530	 1821.00	 1798.45	-1252.45	 1232.88
     60.6790	 1868.00	 1801.97	-1208.97	 1232.05
     60.7050	 1892.00	 1805.45	-1188.45	 1231.22
     60.7310	 1903.00	 1809.30	-1181.30	 1230.39
     60.7570	 1847.00	 1813.32	-1241.32	 1229.57
     60.7830	 1862.00	 1817.52	-1230.52	 1228.75
     60.8090	 1869.00	 1821.91	-1227.91	 1227.93
     60.8350	 1883.00	 1826.48	-1218.48	 1227.11
     60.8610	 1843.00	 1831.26	-1263.26	 1226.30
     60.8870	 1793.00	 1836.24	-1318.24	 1225.49
     60.9130	 1825.00	 1841.44	-1291.44	 1224.68
     60.9390	 1774.00	 1846.85	-1347.85	 1223.87
     60.9650	 1862.00	 1852.50	-1265.50	 1223.06
     60.9910	 1892.00	 1858.39	-1241.39	 1222.26
     61.0170	 1878.00	 1864.52	-1261.52	 1221.46
     61.0430	 1844.00	 1870.92	-1301.92	 1220.66
     61.0690	 1860.00	 1877.58	-1292.58	 1219.87
     61.0950	 1889.00	 1884.52	-1270.52	 1219.07
     61.1210	 1941.00	 1891.75	-1225.75	 1218.28
     61.1470	 1979.00	 1899.28	-1195.28	 1217.49
     61.1730	 1945.00	 1907.12	-1237.12	 1216.71
     61.1990	 1903.00	 1915.28	-1287.28	 1215.92
     61.2250	 1848.00	 1923.78	-1350.78	 1215.14
     61.2510	 1858.00	 1932.62	-1349.62	 1214.36
     61.2770	 1891.00	 1941.83	-1325.83	 1213.59
     61.3030	 1900.00	 1951.41	-1326.41	 1212.81
     61.3290	 1900.00	 1961.37	-1336.37	 1212.04
     61.3550	 1843.00	 1971.74	-1403.74	 1211.27
     61.3810	 1871.00	 1982.52	-1386.52	 1210.51
     61.4070	 1923.00	 1993.73	-1345.73	 1209.74
     61.4330	 1898.00	 2005.38	-1382.38	 1208.98
     61.4590	 1934.00	 2017.48	-1358.48	 1208.23
     61.4850	 1969.00	 2030.05	-1336.05	 1207.47
     61.5110	 1914.00	 2043.11	-1404.11	 1206.72
     61.5370	 1912.00	 2056.66	-1419.66	 1205.97
     61.5630	 1960.00	 2070.71	-1385.71	 1205.22
     61.5890	 1913.00	 2085.29	-1447.29	 1204.48
     61.6150	 1923.00	 2100.40	-1452.40	 1203.74
     61.6410	 1988.00	 2116.04	-1403.04	 1203.00
     61.6670	 2019.00	 2132.23	-1388.23	 1202.26
     61.6930	 1966.00	 2148.98	-1457.98	 1201.53
     61.7190	 1909.00	 2166.28	-1532.28	 1200.80
     61.7450	 1948.00	 2184.14	-1511.14	 1200.07
     61.7710	 2033.00	 2202.55	-1444.55	 1199.35
     61.7970	 2088.00	 2221.51	-1408.51	 1198.63
     61.8230	 2115.00	 2241.02	-1401.02	 1197.91
     61.8490	 2059.00	 2261.05	-1477.05	 1197.20
     61.8750	 2106.00	 2281.59	-1450.59	 1196.48
     61.9010	 2157.00	 2302.62	-1420.62	 1195.77
     61.9270	 2206.00	 2324.11	-1393.11	 1195.07
     61.9530	 2235.00	 2346.01	-1386.01	 1194.36
     61.9790	 2204.00	 2368.28	-1439.28	 1193.66
     62.0050	 2154.00	 2390.88	-1511.88	 1192.97
     62.0310	 2156.00	 2413.74	-1532.74	 1192.27
     62.0570	 2232.00	 2436.79	-1479.79	 1191.58
     62.0830	 2305.00	 2459.94	-1429.94	 1190.89
     62.1090	 2368.00	 2483.13	-1390.13	 1190.21
     62.1350	 2416.00	 2506.24	-1365.24	 1189.52
     62.1610	 2435.00	 2529.17	-1369.17	 1188.85
     62.1870	 2518.00	 2551.80	-1308.80	 1188.17
     62.2130	 2631.00	 2574.01	-1218.01	 1187.50
     62.2390	 2595.00	 2595.67	-1275.67	 1186.83
     62.2650	 2532.00	 2616.63	-1359.63	 1186.16
     62.2910	 2526.00	 2636.77	-1385.77	 1185.50
     62.3170	 2693.00	 2655.92	-1237.92	 1184.84
     62.3430	 2738.00	 2673.95	-1210.95	 1184.18
     62.3690	 2711.00	 2690.71	-1254.71	 1183.53
     62.3950	 2715.00	 2706.06	-1266.06	 1182.88
     62.4210	 2812.00	 2719.86	-1182.86	 1182.23
     62.4470	 2774.00	 2731.99	-1232.99	 1181.58
     62.4730	 2795.00	 2742.33	-1222.33	 1180.94
     62.4990	 2855.00	 2750.78	-1170.78	 1180.31
     62.5250	 2900.00	 2757.26	-1132.26	 1179.67
     62.5510	 2916.00	 2761.71	-1120.71	 1179.04
     62.5770	 2912.00	 2764.07	-1127.07	 1178.41
     62.6030	 2836.00	 2764.32	-1203.32	 1177.79
     62.6290	 2851.00	 2762.46	-1186.46	 1177.17
     62.6550	 2923.00	 2758.50	-1110.50	 1176.55
     62.6810	 2907.00	 2752.48	-1120.48	 1175.93
     62.7070	 2836.00	 2744.46	-1183.46	 1175.32
     62.7330	 2860.00	 2734.50	-1149.50	 1174.72
     62.7590	 2799.00	 2722.72	-1198.72	 1174.11
     62.7850	 2958.00	 2709.21	-1026.21	 1173.51
     62.8110	 2791.00	 2694.09	-1178.09	 1172.91
     62.8370	 2761.00	 2677.49	-1191.49	 1172.32
     62.8630	 2677.00	 2659.55	-1257.55	 1171.73
     62.8890	 2683.00	 2640.41	-1232.41	 1171.14
     62.9150	 2633.00	 2620.21	-1262.21	 1170.55
     62.9410	 2638.00	 2599.11	-1236.11	 1169.97
     62.9670	 2531.00	 2577.23	-1321.23	 1169.39
     62.9930	 2544.00	 2554.73	-1285.73	 1168.82
     63.0190	 2474.00	 2531.73	-1332.73	 1168.25
     63.0450	 2467.00	 2508.37	-1316.37	 1167.68
     63.0710	 2449.00	 2484.75	-1310.75	 1167.12
     63.0970	 2394.00	 2461.00	-1342.00	 1166.56
     63.1230	 2373.00	 2437.22	-1339.22	 1166.00
     63.1490	 2316.00	 2413.49	-1372.49	 1165.44
     63.1750	 2315.00	 2389.91	-1349.91	 1164.89
     63.2010	 2273.00	 2366.55	-1368.55	 1164.35
     63.2270	 2323.00	 2343.47	-1295.47	 1163.80
     63.2530	 2284.00	 2320.74	-1311.74	 1163.26
     63.2790	 2251.00	 2298.41	-1322.41	 1162.73
     63.3050	 2162.00	 2276.50	-1389.50	 1162.19
     63.3310	 2134.00	 2255.07	-1396.07	 1161.66
     63.3570	 2084.00	 2234.14	-1425.14	 1161.14
     63.3830	 2055.00	 2213.74	-1433.74	 1160.61
     63.4090	 2054.00	 2193.88	-1414.88	 1160.09
     63.4350	 2021.00	 2174.56	-1428.56	 1159.58
     63.4610	 2031.00	 2155.82	-1399.82	 1159.06
     63.4870	 1987.00	 2137.64	-1425.64	 1158.55
     63.5130	 1952.00	 2120.03	-1443.03	 1158.05
     63.5390	 1975.00	 2102.99	-1402.99	 1157.55
     63.5650	 1951.00	 2086.51	-1410.51	 1157.05
     63.5910	 1937.00	 2070.59	-1408.59	 1156.55
     63.6170	 1915.00	 2055.23	-1415.23	 1156.06
     63.6430	 1893.00	 2040.40	-1422.40	 1155.57
     63.6690	 1906.00	 2026.12	-1395.12	 1155.08
     63.6950	 1923.00	 2012.35	-1364.35	 1154.60
     63.7210	 1911.00	 1999.10	-1363.10	 1154.12
     63.7470	 1886.00	 1986.34	-1375.34	 1153.65
     63.7730	 1890.00	 1974.08	-1359.08	 1153.18
     63.7990	 1849.00	 1962.29	-1388.29	 1152.71
     63.8250	 1867.00	 1950.95	-1358.95	 1152.24
     63.8510	 1893.00	 1940.07	-1322.07	 1151.78
     63.8770	 1899.00	 1929.63	-1305.63	 1151.32
     63.9030	 1911.00	 1919.61	-1283.61	 1150.87
     63.9290	 1919.00	 1910.00	-1266.00	 1150.42
     63.9550	 1904.00	 1900.80	-1271.80	 1149.97
     63.9810	 1860.00	 1891.98	-1306.98	 1149.52
     64.0070	 1877.00	 1883.54	-1281.54	 1149.08
     64.0330	 1878.00	 1875.47	-1272.47	 1148.65
     64.0590	 1864.00	 1867.75	-1278.75	 1148.21
     64.0850	 1840.00	 1860.38	-1295.38	 1147.78
     64.1110	 1807.00	 1853.35	-1321.35	 1147.35
     64.1370	 1864.00	 1846.64	-1257.64	 1146.93
     64.1630	 1844.00	 1840.26	-1271.26	 1146.51
     64.1890	 1815.00	 1834.18	-1294.18	 1146.09
     64.2150	 1862.00	 1828.40	-1241.40	 1145.68
     64.2410	 1869.00	 1822.93	-1228.93	 1145.27
     64.2670	 1875.00	 1817.73	-1217.73	 1144.86
     64.2930	 1844.00	 1812.82	-1243.82	 1144.45
     64.3190	 1852.00	 1808.19	-1231.19	 1144.05
     64.3450	 1850.00	 1803.82	-1228.82	 1143.65
     64.3710	 1792.00	 1799.72	-1282.72	 1143.26
     64.3970	 1769.00	 1795.88	-1301.88	 1142.87
     64.4230	 1797.00	 1792.29	-1270.29	 1142.48
     64.4490	 1817.00	 1788.95	-1246.95	 1142.10
     64.4750	 1843.00	 1785.86	-1217.86	 1141.72
     64.5010	 1919.00	 1783.00	-1139.00	 1141.34
     64.5270	 1899.00	 1780.39	-1156.39	 1140.96
     64.5530	 1834.00	 1778.02	-1219.02	 1140.59
     64.5790	 1783.00	 1775.88	-1267.88	 1140.22
     64.6050	 1802.00	 1773.96	-1246.96	 1139.86
     64.6310	 1845.00	 1772.28	-1202.28	 1139.50
     64.6570	 1849.00	 1770.83	-1196.83	 1139.14
     64.6830	 1838.00	 1769.60	-1206.60	 1138.78
     64.7090	 1797.00	 1768.60	-1246.60	 1138.43
     64.7350	 1800.00	 1767.81	-1242.81	 1138.08
     64.7610	 1827.00	 1767.25	-1215.25	 1137.73
     64.7870	 1797.00	 1766.91	-1244.91	 1137.39
     64.8130	 1851.00	 1766.79	-1190.79	 1137.05
     64.8390	 1818.00	 1766.88	-1223.88	 1136.71
     64.8650	 1787.00	 1767.20	-1255.20	 1136.38
     64.8910	 1833.00	 1767.72	-1209.72	 1136.05
     64.9170	 1828.00	 1768.47	-1215.47	 1135.72
     64.9430	 1851.00	 1769.42	-1193.42	 1135.40
     64.9690	 1834.00	 1770.58	-1211.58	 1135.08
     64.9950	 1852.00	 1771.95	-1194.95	 1134.76
     65.0210	 1825.00	 1773.53	-1223.53	 1134.44
     65.0470	 1836.00	 1775.30	-1214.30	 1134.13
     65.0730	 1892.00	 1777.27	-1160.27	 1133.82
     65.0990	 1887.00	 1779.44	-1167.44	 1133.52
     65.1250	 1772.00	 1781.79	-1284.79	 1133.21
     65.1510	 1863.00	 1784.32	-1196.32	 1132.91
     65.1770	 1831.00	 1787.02	-1231.02	 1132.61
     65.2030	 1817.00	 1789.88	-1247.88	 1132.32
     65.2290	 1751.00	 1792.89	-1316.89	 1132.03
     65.2550	 1817.00	 1796.05	-1254.05	 1131.74
     65.2810	 1801.00	 1799.33	-1273.33	 1131.45
     65.3070	 1816.00	 1802.73	-1261.73	 1131.17
     65.3330	 1836.00	 1806.22	-1245.22	 1130.89
     65.3590	 1806.00	 1809.79	-1278.79	 1130.61
     65.3850	 1846.00	 1813.42	-1242.42	 1130.34
     65.4110	 1861.00	 1817.10	-1231.10	 1130.07
     65.4370	 1817.00	 1820.80	-1278.80	 1129.80
     65.4630	 1861.00	 1824.49	-1238.49	 1129.53
     65.4890	 1826.00	 1828.16	-1277.16	 1129.27
     65.5150	 1801.00	 1831.77	-1305.77	 1129.01
     65.5410	 1776.00	 1835.32	-1334.32	 1128.75
     65.5670	 1736.00	 1838.77	-1377.77	 1128.49
     65.5930	 1828.00	 1842.10	-1289.10	 1128.24
     65.6190	 1809.00	 1845.29	-1311.29	 1127.99
     65.6450	 1882.00	 1848.32	-1241.32	 1127.74
     65.6710	 1882.00	 1851.16	-1244.16	 1127.50
     65.6970	 1883.00	 1853.80	-1245.80	 1127.25
     65.7230	 1844.00	 1856.22	-1287.22	 1127.01
     65.7490	 1829.00	 1858.42	-1304.42	 1126.78
     65.7750	 1837.00	 1860.39	-1298.39	 1126.54
     65.8010	 1874.00	 1862.11	-1263.11	 1126.31
     65.8270	 1821.00	 1863.58	-1317.58	 1126.08
     65.8530	 1745.00	 1864.82	-1394.82	 1125.85
     65.8790	 1795.00	 1865.81	-1345.81	 1125.63
     65.9050	 1826.00	 1866.57	-1315.57	 1125.40
     65.9310	 1839.00	 1867.11	-1303.11	 1125.18
     65.9570	 1816.00	 1867.44	-1326.44	 1124.97
     65.9830	 1786.00	 1867.57	-1356.57	 1124.75
     66.0090	 1822.00	 1867.53	-1320.53	 1124.54
     66.0350	 1828.00	 1867.34	-1314.34	 1124.33
     66.0610	 1817.00	 1867.01	-1325.01	 1124.12
     66.0870	 1817.00	 1866.56	-1324.56	 1123.91
     66.1130	 1776.00	 1866.02	-1365.02	 1123.71
     66.1390	 1837.00	 1865.40	-1303.40	 1123.51
     66.1650	 1829.00	 1864.73	-1310.73	 1123.31
     66.1910	 1798.00	 1864.02	-1341.02	 1123.11
     66.2170	 1802.00	 1863.29	-1336.29	 1122.92
     66.2430	 1732.00	 1862.55	-1405.55	 1122.72
     66.2690	 1764.00	 1861.82	-1372.82	 1122.53
     66.2950	 1777.00	 1861.10	-1359.10	 1122.34
     66.3210	 1787.00	 1860.40	-1348.40	 1122.16
     66.3470	 1782.00	 1859.73	-1352.73	 1121.97
     66.3730	 1778.00	 1859.07	-1356.07	 1121.79
     66.3990	 1821.00	 1857.46	-1311.46	 1121.61
     66.4250	 1844.00	 1856.84	-1287.84	 1121.43
     66.4510	 1792.00	 1856.23	-1339.23	 1121.26
     66.4770	 1770.00	 1855.61	-1360.61	 1121.08
     66.5030	 1783.00	 1854.48	-1346.48	 1120.91
     66.5290	 1796.00	 1853.79	-1332.79	 1120.74
     66.5550	 1773.00	 1853.05	-1355.05	 1120.57
     66.5810	 1755.00	 1852.22	-1372.22	 1120.40
     66.6070	 1766.00	 1851.30	-1360.30	 1120.24
     66.6330	 1749.00	 1850.25	-1376.25	 1120.08
     66.6590	 1765.00	 1849.05	-1359.05	 1119.91
     66.6850	 1797.00	 1847.68	-1325.68	 1119.75
     66.7110	 1779.00	 1846.12	-1342.12	 1119.60
     66.7370	 1757.00	 1844.34	-1362.34	 1119.44
     66.7630	 1715.00	 1842.33	-1402.33	 1119.29
     66.7890	 1671.00	 1840.07	-1444.07	 1119.13
     66.8150	 1702.00	 1837.55	-1410.55	 1118.98
     66.8410	 1733.00	 1834.76	-1376.76	 1118.83
     66.8670	 1756.00	 1831.69	-1350.69	 1118.68
     66.8930	 1740.00	 1828.33	-1363.33	 1118.54
     66.9190	 1713.00	 1824.68	-1386.68	 1118.39
     66.9450	 1704.00	 1820.75	-1391.75	 1118.25
     66.9710	 1675.00	 1816.55	-1416.55	 1118.11
     66.9970	 1670.00	 1812.07	-1417.07	 1117.97
     67.0230	 1690.00	 1807.34	-1392.34	 1117.83
     67.0490	 1710.00	 1802.37	-1367.37	 1117.69
     67.0750	 1692.00	 1797.18	-1380.18	 1117.56
     67.1010	 1759.00	 1791.78	-1307.78	 1117.42
     67.1270	 1763.00	 1786.20	-1298.20	 1117.29
     67.1530	 1693.00	 1780.45	-1362.45	 1117.16
     67.1790	 1724.00	 1774.57	-1325.57	 1117.02
     67.2050	 1791.00	 1768.58	-1252.58	 1116.90
     67.2310	 1764.00	 1762.49	-1273.49	 1116.77
     67.2570	 1744.00	 1756.33	-1287.33	 1116.64
     67.2830	 1785.00	 1750.13	-1240.13	 1116.51
     67.3090	 1667.00	 1743.90	-1351.90	 1116.39
     67.3350	 1660.00	 1737.66	-1352.66	 1116.27
     67.3610	 1706.00	 1731.44	-1300.44	 1116.14
     67.3870	 1680.00	 1725.25	-1320.25	 1116.02
     67.4130	 1683.00	 1719.11	-1311.11	 1115.90
     67.4390	 1704.00	 1713.04	-1284.04	 1115.78
     67.4650	 1717.00	 1707.04	-1265.04	 1115.67
     67.4910	 1738.00	 1701.12	-1238.12	 1115.55
     67.5170	 1694.00	 1695.31	-1276.31	 1115.43
     67.5430	 1776.00	 1689.60	-1188.60	 1115.32
     67.5690	 1613.00	 1684.01	-1346.01	 1115.20
     67.5950	 1624.00	 1678.54	-1329.54	 1115.09
     67.6210	 1590.00	 1673.20	-1358.20	 1114.98
     67.6470	 1665.00	 1667.98	-1277.98	 1114.87
     67.6730	 1641.00	 1662.90	-1296.90	 1114.76
     67.6990	 1711.00	 1657.96	-1221.96	 1114.65
     67.7250	 1650.00	 1653.15	-1278.15	 1114.54
     67.7510	 1699.00	 1648.48	-1224.48	 1114.43
     67.7770	 1707.00	 1643.94	-1211.94	 1114.32
     67.8030	 1695.00	 1639.55	-1219.55	 1114.21
     67.8290	 1614.00	 1635.29	-1296.29	 1114.11
     67.8550	 1686.00	 1631.16	-1220.16	 1114.00
     67.8810	 1633.00	 1627.16	-1269.16	 1113.90
     67.9070	 1658.00	 1623.30	-1240.30	 1113.79
     67.9330	 1783.00	 1619.57	-1111.57	 1113.69
     67.9590	 1768.00	 1615.96	-1122.96	 1113.59
     67.9850	 1774.00	 1612.47	-1113.47	 1113.48
     68.0110	 1676.00	 1609.10	-1208.10	 1113.38
     68.0370	 1677.00	 1605.85	-1203.85	 1113.28
     68.0630	 1639.00	 1602.72	-1238.72	 1113.18
     68.0890	 1643.00	 1599.69	-1231.69	 1113.08
     68.1150	 1666.00	 1596.78	-1205.78	 1112.98
     68.1410	 1629.00	 1593.97	-1239.97	 1112.88
     68.1670	 1636.00	 1591.26	-1230.26	 1112.78
     68.1930	 1708.00	 1588.66	-1155.66	 1112.68
     68.2190	 1690.00	 1586.15	-1171.15	 1112.58
     68.2450	 1643.00	 1583.73	-1215.73	 1112.48
     68.2710	 1623.00	 1581.41	-1233.41	 1112.38
     68.2970	 1651.00	 1579.18	-1203.18	 1112.29
     68.3230	 1670.00	 1577.03	-1182.03	 1112.19
     68.3490	 1600.00	 1574.97	-1249.97	 1112.09
     68.3750	 1707.00	 1572.99	-1140.99	 1111.99
     68.4010	 1744.00	 1571.09	-1102.09	 1111.90
     68.4270	 1684.00	 1569.27	-1160.27	 1111.80
     68.4530	 1673.00	 1567.52	-1169.52	 1111.70
     68.4790	 1677.00	 1565.85	-1163.85	 1111.60
     68.5050	 1619.00	 1564.25	-1220.25	 1111.51
     68.5310	 1670.00	 1562.72	-1167.72	 1111.41
     68.5570	 1754.00	 1561.26	-1082.26	 1111.31
     68.5830	 1633.00	 1559.86	-1201.86	 1111.22
     68.6090	 1563.00	 1558.53	-1270.53	 1111.12
     68.6350	 1620.00	 1557.27	-1212.27	 1111.02
     68.6610	 1671.00	 1556.07	-1160.07	 1110.93
     68.6870	 1653.00	 1554.92	-1176.92	 1110.83
     68.7130	 1669.00	 1553.84	-1159.84	 1110.73
     68.7390	 1605.00	 1552.82	-1222.82	 1110.64
     68.7650	 1631.00	 1551.86	-1195.86	 1110.54
     68.7910	 1622.00	 1550.95	-1203.95	 1110.44
     68.8170	 1584.00	 1550.10	-1241.10	 1110.35
     68.8430	 1643.00	 1549.30	-1181.30	 1110.25
     68.8690	 1660.00	 1548.56	-1163.56	 1110.15
     68.8950	 1611.00	 1547.88	-1211.88	 1110.05
     68.9210	 1604.00	 1547.25	-1218.25	 1109.95
     68.9470	 1616.00	 1546.67	-1205.67	 1109.85
     68.9730	 1630.00	 1546.15	-1191.15	 1109.76
     68.9990	 1650.00	 1545.67	-1170.67	 1109.66
     69.0250	 1640.00	 1545.26	-1180.26	 1109.56
     69.0510	 1621.00	 1544.89	-1198.89	 1109.46
     69.0770	 1644.00	 1544.57	-1175.57	 1109.36
     69.1030	 1621.00	 1544.31	-1198.31	 1109.26
     69.1290	 1583.00	 1544.10	-1236.10	 1109.16
     69.1550	 1587.00	 1543.95	-1231.95	 1109.05
     69.1810	 1607.00	 1543.84	-1211.84	 1108.95
     69.2070	 1620.00	 1543.79	-1198.79	 1108.85
     69.2330	 1630.00	 1543.80	-1188.80	 1108.75
     69.2590	 1625.00	 1543.85	-1193.85	 1108.64
     69.2850	 1634.00	 1543.96	-1184.96	 1108.54
     69.3110	 1661.00	 1544.13	-1158.13	 1108.44
     69.3370	 1643.00	 1544.35	-1176.35	 1108.33
     69.3630	 1633.00	 1544.63	-1186.63	 1108.23
     69.3890	 1589.00	 1544.97	-1230.97	 1108.12
     69.4150	 1561.00	 1545.36	-1259.36	 1108.01
     69.4410	 1616.00	 1545.81	-1204.81	 1107.91
     69.4670	 1642.00	 1546.33	-1179.33	 1107.80
     69.4930	 1637.00	 1546.90	-1184.90	 1107.69
     69.5190	 1585.00	 1547.54	-1237.54	 1107.58
     69.5450	 1574.00	 1548.24	-1249.24	 1107.47
     69.5710	 1579.00	 1549.00	-1245.00	 1107.36
     69.5970	 1600.00	 1549.83	-1224.83	 1107.25
     69.6230	 1614.00	 1550.73	-1211.73	 1107.14
     69.6490	 1648.00	 1551.70	-1178.70	 1107.03
     69.6750	 1645.00	 1552.73	-1182.73	 1106.91
     69.7010	 1641.00	 1553.84	-1187.84	 1106.80
     69.7270	 1631.00	 1555.02	-1199.02	 1106.68
     69.7530	 1627.00	 1556.28	-1204.28	 1106.57
     69.7790	 1602.00	 1557.62	-1230.62	 1106.45
     69.8050	 1600.00	 1559.03	-1234.03	 1106.34
     69.8310	 1559.00	 1560.52	-1276.52	 1106.22
     69.8570	 1620.00	 1562.10	-1217.10	 1106.10
     69.8830	 1625.00	 1563.75	-1213.75	 1105.98
     69.9090	 1610.00	 1565.50	-1230.50	 1105.86
     69.9350	 1661.00	 1567.33	-1181.33	 1105.74
     69.9610	 1680.00	 1569.24	-1164.24	 1105.62
     69.9870	 1607.00	 1571.25	-1239.25	 1105.50
     70.0130	 1647.00	 1573.34	-1201.34	 1105.37
     70.0390	 1607.00	 1575.53	-1243.53	 1105.25
     70.0650	 1595.00	 1577.80	-1257.80	 1105.13
     70.0910	 1583.00	 1580.17	-1272.17	 1105.00
     70.1170	 1599.00	 1582.63	-1258.63	 1104.87
     70.1430	 1564.00	 1585.18	-1296.18	 1104.75
     70.1690	 1629.00	 1587.82	-1233.82	 1104.62
     70.1950	 1599.00	 1590.55	-1266.55	 1104.49
     70.2210	 1657.00	 1593.36	-1211.36	 1104.36
     70.2470	 1656.00	 1596.26	-1215.26	 1104.23
     70.2730	 1610.00	 1599.25	-1264.25	 1104.09
     70.2990	 1614.00	 1602.30	-1263.30	 1103.96
     70.3250	 1552.00	 1605.43	-1328.43	 1103.83
     70.3510	 1608.00	 1608.63	-1275.63	 1103.69
     70.3770	 1574.00	 1611.88	-1312.88	 1103.56
     70.4030	 1614.00	 1615.18	-1276.18	 1103.42
     70.4290	 1550.00	 1618.53	-1343.53	 1103.28
     70.4550	 1667.00	 1621.91	-1229.91	 1103.14
     70.4810	 1522.00	 1625.31	-1378.31	 1103.00
     70.5070	 1711.00	 1628.71	-1192.71	 1102.86
     70.5330	 1645.00	 1632.11	-1262.11	 1102.72
     70.5590	 1648.00	 1635.48	-1262.48	 1102.58
     70.5850	 1624.00	 1638.82	-1289.82	 1102.44
     70.6110	 1594.00	 1642.10	-1323.10	 1102.29
     70.6370	 1601.00	 1645.30	-1319.30	 1102.15
     70.6630	 1593.00	 1648.42	-1330.42	 1102.00
     70.6890	 1658.00	 1651.42	-1268.42	 1101.86
     70.7150	 1605.00	 1654.28	-1324.28	 1101.71
     70.7410	 1601.00	 1657.00	-1331.00	 1101.56
     70.7670	 1594.00	 1659.53	-1340.53	 1101.41
     70.7930	 1597.00	 1661.88	-1339.88	 1101.26
     70.8190	 1577.00	 1664.02	-1362.02	 1101.11
     70.8450	 1540.00	 1665.92	-1400.92	 1100.95
     70.8710	 1598.00	 1667.58	-1344.58	 1100.80
     70.8970	 1575.00	 1668.98	-1368.98	 1100.65
     70.9230	 1654.00	 1670.11	-1291.11	 1100.49
     70.9490	 1595.00	 1670.95	-1350.95	 1100.33
     70.9750	 1592.00	 1671.51	-1354.51	 1100.18
     71.0010	 1615.00	 1671.76	-1331.76	 1100.02
     71.0270	 1570.00	 1671.72	-1376.72	 1099.86
     71.0530	 1658.00	 1671.38	-1288.38	 1099.70
     71.0790	 1579.00	 1670.75	-1366.75	 1099.54
     71.1050	 1637.00	 1669.82	-1307.82	 1099.38
     71.1310	 1547.00	 1668.61	-1396.61	 1099.22
     71.1570	 1580.00	 1667.14	-1362.14	 1099.05
     71.1830	 1589.00	 1665.40	-1351.40	 1098.89
     71.2090	 1579.00	 1663.42	-1359.42	 1098.72
     71.2350	 1634.00	 1661.21	-1302.21	 1098.56
     71.2610	 1593.00	 1658.79	-1340.79	 1098.39
     71.2870	 1616.00	 1656.19	-1315.19	 1098.22
     71.3130	 1627.00	 1653.41	-1301.41	 1098.05
     71.3390	 1634.00	 1650.47	-1291.47	 1097.88
     71.3650	 1634.00	 1647.41	-1288.41	 1097.71
     71.3910	 1562.00	 1644.23	-1357.23	 1097.54
     71.4170	 1567.00	 1640.97	-1348.97	 1097.37
     71.4430	 1599.00	 1637.62	-1313.62	 1097.20
     71.4690	 1588.00	 1634.23	-1321.23	 1097.03
     71.4950	 1567.00	 1630.80	-1338.80	 1096.85
     71.5210	 1569.00	 1627.34	-1333.34	 1096.68
     71.5470	 1575.00	 1623.89	-1323.89	 1096.50
     71.5730	 1537.00	 1620.44	-1358.44	 1096.33
     71.5990	 1541.00	 1617.02	-1351.02	 1096.15
     71.6250	 1564.00	 1613.63	-1324.63	 1095.97
     71.6510	 1584.00	 1610.29	-1301.29	 1095.79
     71.6770	 1570.00	 1607.00	-1312.00	 1095.61
     71.7030	 1546.00	 1603.78	-1332.78	 1095.44
     71.7290	 1531.00	 1600.62	-1344.62	 1095.26
     71.7550	 1532.00	 1597.55	-1340.55	 1095.08
     71.7810	 1552.00	 1594.57	-1317.57	 1094.89
     71.8070	 1565.00	 1591.67	-1301.67	 1094.71
     71.8330	 1581.00	 1588.87	-1282.87	 1094.53
     71.8590	 1564.00	 1586.16	-1297.16	 1094.35
     71.8850	 1561.00	 1583.56	-1297.56	 1094.16
     71.9110	 1607.00	 1581.05	-1249.05	 1093.98
     71.9370	 1615.00	 1578.65	-1238.65	 1093.80
     71.9630	 1567.00	 1576.36	-1284.36	 1093.61
     71.9890	 1584.00	 1574.17	-1265.17	 1093.43
     72.0150	 1613.00	 1572.09	-1234.09	 1093.24
     72.0410	 1535.00	 1570.11	-1310.11	 1093.05
     72.0670	 1490.00	 1568.25	-1353.25	 1092.87
     72.0930	 1484.00	 1566.48	-1357.48	 1092.68
     72.1190	 1538.00	 1564.83	-1301.83	 1092.49
     72.1450	 1542.00	 1563.28	-1296.28	 1092.31
     72.1710	 1556.00	 1561.84	-1280.84	 1092.12
     72.1970	 1565.00	 1560.50	-1270.50	 1091.93
     72.2230	 1548.00	 1559.27	-1286.27	 1091.74
     72.2490	 1549.00	 1558.14	-1284.14	 1091.55
     72.2750	 1558.00	 1557.11	-1274.11	 1091.36
     72.3010	 1504.00	 1556.19	-1327.19	 1091.17
     72.3270	 1539.00	 1555.37	-1291.37	 1090.98
     72.3530	 1598.00	 1554.65	-1231.65	 1090.80
     72.3790	 1600.00	 1554.04	-1229.04	 1090.61
     72.4050	 1558.00	 1553.52	-1270.52	 1090.42
     72.4310	 1534.00	 1553.10	-1294.10	 1090.23
     72.4570	 1571.00	 1552.79	-1256.79	 1090.04
     72.4830	 1556.00	 1552.58	-1271.58	 1089.85
     72.5090	 1542.00	 1552.46	-1285.46	 1089.66
     72.5350	 1569.00	 1552.45	-1258.45	 1089.47
     72.5610	 1565.00	 1552.54	-1262.54	 1089.28
     72.5870	 1558.00	 1552.73	-1269.73	 1089.09
     72.6130	 1561.00	 1553.02	-1267.02	 1088.90
     72.6390	 1572.00	 1553.41	-1256.41	 1088.71
     72.6650	 1524.00	 1553.91	-1304.91	 1088.52
     72.6910	 1577.00	 1554.51	-1252.51	 1088.33
     72.7170	 1570.00	 1555.21	-1260.21	 1088.14
     72.7430	 1570.00	 1556.02	-1261.02	 1087.95
     72.7690	 1626.00	 1556.94	-1205.94	 1087.76
     72.7950	 1637.00	 1557.96	-1195.96	 1087.57
     72.8210	 1605.00	 1559.09	-1229.09	 1087.39
     72.8470	 1666.00	 1560.33	-1169.33	 1087.20
     72.8730	 1683.00	 1561.68	-1153.68	 1087.01
     72.8990	 1601.00	 1563.14	-1237.14	 1086.82
     72.9250	 1555.00	 1564.71	-1284.71	 1086.64
     72.9510	 1645.00	 1566.40	-1196.40	 1086.45
     72.9770	 1588.00	 1568.20	-1255.20	 1086.26
     73.0030	 1547.00	 1570.12	-1298.12	 1086.08
     73.0290	 1599.00	 1572.15	-1248.15	 1085.89
     73.0550	 1587.00	 1574.30	-1262.30	 1085.71
     73.0810	 1550.00	 1576.57	-1301.57	 1085.53
     73.1070	 1637.00	 1578.96	-1216.96	 1085.34
     73.1330	 1596.00	 1581.46	-1260.46	 1085.16
     73.1590	 1673.00	 1584.08	-1186.08	 1084.98
     73.1850	 1646.00	 1586.82	-1215.82	 1084.80
     73.2110	 1588.00	 1589.67	-1276.67	 1084.62
     73.2370	 1527.00	 1592.64	-1340.64	 1084.44
     73.2630	 1656.00	 1595.72	-1214.72	 1084.26
     73.2890	 1556.00	 1598.91	-1317.91	 1084.08
     73.3150	 1607.00	 1602.20	-1270.20	 1083.90
     73.3410	 1586.00	 1605.60	-1294.60	 1083.72
     73.3670	 1606.00	 1609.09	-1278.09	 1083.55
     73.3930	 1644.00	 1612.67	-1243.67	 1083.37
     73.4190	 1642.00	 1616.33	-1249.33	 1083.20
     73.4450	 1694.00	 1620.07	-1201.07	 1083.03
     73.4710	 1645.00	 1623.87	-1253.87	 1082.85
     73.4970	 1679.00	 1627.73	-1223.73	 1082.68
     73.5230	 1676.00	 1631.63	-1230.63	 1082.51
     73.5490	 1600.00	 1635.56	-1310.56	 1082.34
     73.5750	 1615.00	 1639.51	-1299.51	 1082.18
     73.6010	 1605.00	 1643.46	-1313.46	 1082.01
     73.6270	 1651.00	 1647.40	-1271.40	 1081.84
     73.6530	 1656.00	 1651.31	-1270.31	 1081.68
     73.6790	 1678.00	 1655.17	-1252.17	 1081.52
     73.7050	 1635.00	 1658.97	-1298.97	 1081.35
     73.7310	 1665.00	 1662.68	-1272.68	 1081.19
     73.7570	 1623.00	 1666.28	-1318.28	 1081.03
     73.7830	 1586.00	 1669.77	-1358.77	 1080.88
     73.8090	 1568.00	 1673.11	-1380.11	 1080.72
     73.8350	 1571.00	 1676.29	-1380.29	 1080.56
     73.8610	 1678.00	 1679.30	-1276.30	 1080.41
     73.8870	 1670.00	 1682.11	-1287.11	 1080.26
     73.9130	 1681.00	 1684.72	-1278.72	 1080.11
     73.9390	 1614.00	 1687.11	-1348.11	 1079.96
     73.9650	 1615.00	 1689.26	-1349.26	 1079.81
     73.9910	 1652.00	 1691.17	-1314.17	 1079.66
     74.0170	 1626.00	 1692.84	-1341.84	 1079.52
     74.0430	 1687.00	 1694.25	-1282.25	 1079.37
     74.0690	 1687.00	 1695.41	-1283.41	 1079.23
     74.0950	 1628.00	 1696.32	-1343.32	 1079.09
     74.1210	 1680.00	 1696.97	-1291.97	 1078.95
     74.1470	 1698.00	 1697.38	-1274.38	 1078.81
     74.1730	 1680.00	 1697.55	-1292.55	 1078.68
     74.1990	 1692.00	 1697.49	-1280.49	 1078.54
     74.2250	 1699.00	 1697.22	-1273.22	 1078.41
     74.2510	 1710.00	 1696.74	-1261.74	 1078.28
     74.2770	 1705.00	 1696.07	-1266.07	 1078.15
     74.3030	 1682.00	 1695.23	-1288.23	 1078.02
     74.3290	 1640.00	 1694.22	-1329.22	 1077.90
     74.3550	 1701.00	 1693.07	-1267.07	 1077.77
     74.3810	 1712.00	 1691.79	-1254.79	 1077.65
     74.4070	 1677.00	 1690.39	-1288.39	 1077.53
     74.4330	 1709.00	 1688.90	-1254.90	 1077.41
     74.4590	 1693.00	 1687.32	-1269.32	 1077.30
     74.4850	 1653.00	 1685.66	-1307.66	 1077.18
     74.5110	 1673.00	 1683.95	-1285.95	 1077.07
     74.5370	 1714.00	 1682.18	-1243.18	 1076.96
     74.5630	 1714.00	 1680.36	-1241.36	 1076.85
     74.5890	 1681.00	 1678.51	-1272.51	 1076.74
     74.6150	 1629.00	 1676.63	-1322.63	 1076.64
     74.6410	 1620.00	 1674.71	-1329.71	 1076.53
     74.6670	 1632.00	 1672.77	-1315.77	 1076.43
     74.6930	 1646.00	 1670.79	-1299.79	 1076.33
     74.7190	 1631.00	 1668.79	-1312.79	 1076.23
     74.7450	 1576.00	 1666.37	-1365.37	 1076.14
     74.7710	 1628.00	 1664.29	-1311.29	 1076.04
     74.7970	 1648.00	 1662.18	-1289.18	 1075.95
     74.8230	 1658.00	 1660.01	-1277.01	 1075.86
     74.8490	 1690.00	 1657.79	-1242.79	 1075.77
     74.8750	 1627.00	 1655.32	-1303.32	 1075.69
     74.9010	 1642.00	 1652.98	-1285.98	 1075.60
     74.9270	 1640.00	 1650.56	-1285.56	 1075.52
     74.9530	 1631.00	 1648.06	-1292.06	 1075.44
     74.9790	 1615.00	 1645.48	-1305.48	 1075.36
     75.0050	 1622.00	 1642.81	-1295.81	 1075.28
     75.0310	 1598.00	 1640.05	-1317.05	 1075.21
     75.0570	 1637.00	 1637.20	-1275.20	 1075.14
     75.0830	 1595.00	 1634.25	-1314.25	 1075.07
     75.1090	 1598.00	 1631.21	-1308.21	 1075.00
     75.1350	 1603.00	 1628.07	-1300.07	 1074.93
     75.1610	 1612.00	 1624.85	-1287.85	 1074.86
     75.1870	 1649.00	 1621.53	-1247.53	 1074.80
     75.2130	 1601.00	 1618.14	-1292.14	 1074.74
     75.2390	 1556.00	 1614.67	-1333.67	 1074.68
     75.2650	 1589.00	 1611.13	-1297.13	 1074.62
     75.2910	 1574.00	 1607.53	-1308.53	 1074.57
     75.3170	 1618.00	 1603.88	-1260.88	 1074.51
     75.3430	 1595.00	 1600.18	-1280.18	 1074.46
     75.3690	 1563.00	 1596.45	-1308.45	 1074.41
     75.3950	 1562.00	 1592.68	-1305.68	 1074.36
     75.4210	 1574.00	 1588.90	-1289.90	 1074.31
     75.4470	 1606.00	 1585.12	-1254.12	 1074.26
     75.4730	 1622.00	 1581.33	-1234.33	 1074.22
     75.4990	 1608.00	 1577.55	-1244.55	 1074.17
     75.5250	 1538.00	 1573.79	-1310.79	 1074.13
     75.5510	 1489.00	 1570.06	-1356.06	 1074.09
     75.5770	 1558.00	 1566.36	-1283.36	 1074.05
     75.6030	 1550.00	 1562.70	-1287.70	 1074.01
     75.6290	 1515.00	 1559.08	-1319.08	 1073.98
     75.6550	 1506.00	 1555.52	-1324.52	 1073.94
     75.6810	 1521.00	 1552.01	-1306.01	 1073.91
     75.7070	 1615.00	 1548.57	-1208.57	 1073.88
     75.7330	 1581.00	 1545.19	-1239.19	 1073.84
     75.7590	 1581.00	 1541.88	-1235.88	 1073.81
     75.7850	 1519.00	 1538.64	-1294.64	 1073.78
     75.8110	 1542.00	 1535.47	-1268.47	 1073.76
     75.8370	 1515.00	 1532.39	-1292.39	 1073.73
     75.8630	 1525.00	 1529.37	-1279.37	 1073.70
     75.8890	 1533.00	 1526.44	-1268.44	 1073.67
     75.9150	 1530.00	 1523.58	-1268.58	 1073.65
     75.9410	 1537.00	 1520.80	-1258.80	 1073.62
     75.9670	 1612.00	 1518.10	-1181.10	 1073.60
     75.9930	 1606.00	 1515.48	-1184.48	 1073.58
     76.0190	 1553.00	 1512.94	-1234.94	 1073.55
     76.0450	 1524.00	 1510.47	-1261.47	 1073.53
     76.0710	 1524.00	 1508.08	-1259.08	 1073.51
     76.0970	 1542.00	 1505.77	-1238.77	 1073.48
     76.1230	 1529.00	 1503.52	-1249.52	 1073.46
     76.1490	 1541.00	 1501.35	-1235.35	 1073.44
     76.1750	 1469.00	 1499.25	-1305.25	 1073.41
     76.2010	 1518.00	 1497.22	-1254.22	 1073.39
     76.2270	 1538.00	 1495.26	-1232.26	 1073.37
     76.2530	 1507.00	 1493.36	-1261.36	 1073.34
     76.2790	 1467.00	 1491.53	-1299.53	 1073.32
     76.3050	 1538.00	 1489.76	-1226.76	 1073.29
     76.3310	 1466.00	 1488.05	-1297.05	 1073.26
     76.3570	 1507.00	 1486.40	-1254.40	 1073.24
     76.3830	 1530.00	 1484.80	-1229.80	 1073.21
     76.4090	 1571.00	 1483.27	-1187.27	 1073.18
     76.4350	 1545.00	 1481.79	-1211.79	 1073.15
     76.4610	 1509.00	 1480.36	-1246.36	 1073.12
     76.4870	 1481.00	 1478.98	-1272.98	 1073.08
     76.5130	 1493.00	 1477.66	-1259.66	 1073.05
     76.5390	 1456.00	 1476.38	-1295.38	 1073.01
     76.5650	 1480.00	 1475.15	-1270.15	 1072.97
     76.5910	 1489.00	 1473.96	-1259.96	 1072.93
     76.6170	 1483.00	 1472.82	-1264.82	 1072.89
     76.6430	 1469.00	 1471.73	-1277.73	 1072.84
     76.6690	 1443.00	 1470.67	-1302.67	 1072.79
     76.6950	 1475.00	 1469.66	-1269.66	 1072.74
     76.7210	 1546.00	 1468.68	-1197.68	 1072.69
     76.7470	 1514.00	 1467.75	-1228.75	 1072.63
     76.7730	 1469.00	 1466.85	-1272.85	 1072.57
     76.7990	 1458.00	 1465.99	-1282.99	 1072.50
     76.8250	 1463.00	 1465.17	-1277.17	 1072.44
     76.8510	 1467.00	 1464.38	-1272.38	 1072.36
     76.8770	 1479.00	 1463.62	-1259.62	 1072.29
     76.9030	 1507.00	 1462.90	-1230.90	 1072.21
     76.9290	 1517.00	 1462.21	-1220.21	 1072.13
     76.9550	 1478.00	 1461.55	-1258.55	 1072.04
     76.9810	 1481.00	 1460.92	-1254.92	 1071.94
     77.0070	 1469.00	 1460.32	-1266.32	 1071.85
     77.0330	 1470.00	 1459.76	-1264.76	 1071.74
     77.0590	 1469.00	 1459.22	-1265.22	 1071.63
     77.0850	 1490.00	 1458.71	-1243.71	 1071.52
     77.1110	 1504.00	 1458.23	-1229.23	 1071.40
     77.1370	 1468.00	 1457.77	-1264.77	 1071.27
     77.1630	 1451.00	 1457.35	-1281.35	 1071.14
     77.1890	 1438.00	 1456.95	-1293.95	 1071.00
     77.2150	 1516.00	 1456.57	-1215.57	 1070.85
     77.2410	 1512.00	 1456.23	-1219.23	 1070.70
     77.2670	 1444.00	 1455.91	-1286.91	 1070.54
     77.2930	 1440.00	 1455.61	-1290.61	 1070.37
     77.3190	 1412.00	 1455.34	-1318.34	 1070.19
     77.3450	 1453.00	 1455.10	-1277.10	 1070.00
     77.3710	 1478.00	 1454.88	-1251.88	 1069.81
     77.3970	 1463.00	 1454.69	-1266.69	 1069.61
     77.4230	 1431.00	 1454.52	-1298.52	 1069.40
     77.4490	 1416.00	 1454.38	-1313.38	 1069.18
     77.4750	 1467.00	 1454.26	-1262.26	 1068.94
     77.5010	 1453.00	 1454.17	-1276.17	 1068.70
     77.5270	 1425.00	 1454.10	-1304.10	 1068.45
     77.5530	 1430.00	 1454.06	-1299.06	 1068.19
     77.5790	 1452.00	 1454.04	-1277.04	 1067.92
     77.6050	 1472.00	 1454.05	-1257.05	 1067.63
     77.6310	 1463.00	 1454.08	-1266.08	 1067.34
     77.6570	 1471.00	 1454.14	-1258.14	 1067.03
     77.6830	 1546.00	 1454.23	-1183.23	 1066.71
     77.7090	 1407.00	 1454.34	-1322.34	 1066.38
     77.7350	 1412.00	 1454.48	-1317.48	 1066.03
     77.7610	 1458.00	 1454.65	-1271.65	 1065.67
     77.7870	 1449.00	 1454.84	-1280.84	 1065.30
     77.8130	 1414.00	 1455.06	-1316.06	 1064.91
     77.8390	 1443.00	 1455.30	-1287.30	 1064.51
     77.8650	 1402.00	 1455.57	-1328.57	 1064.09
     77.8910	 1430.00	 1455.87	-1300.87	 1063.66
     77.9170	 1437.00	 1456.20	-1294.20	 1063.21
     77.9430	 1463.00	 1456.56	-1268.56	 1062.75
     77.9690	 1457.00	 1456.94	-1274.94	 1062.26
     77.9950	 1508.00	 1457.34	-1224.34	 1061.76
     78.0210	 1470.00	 1457.78	-1262.78	 1061.25
     78.0470	 1427.00	 1458.24	-1306.24	 1060.71
     78.0730	 1495.00	 1458.72	-1238.72	 1060.16
     78.0990	 1472.00	 1459.23	-1262.23	 1059.59
     78.1250	 1458.00	 1459.76	-1276.76	 1059.00
     78.1510	 1491.00	 1460.32	-1244.32	 1058.39
     78.1770	 1466.00	 1460.89	-1269.89	 1057.75
     78.2030	 1465.00	 1461.49	-1271.49	 1057.10
     78.2290	 1410.00	 1462.10	-1327.10	 1056.43
     78.2550	 1504.00	 1462.73	-1233.73	 1055.73
     78.2810	 1455.00	 1463.37	-1283.37	 1055.01
     78.3070	 1587.00	 1464.01	-1152.01	 1054.27
     78.3330	 1492.00	 1464.67	-1247.67	 1053.50
     78.3590	 1487.00	 1465.32	-1253.32	 1052.71
     78.3850	 1415.00	 1465.98	-1325.98	 1051.90
     78.4110	 1464.00	 1466.62	-1277.62	 1051.06
     78.4370	 1485.00	 1467.26	-1257.26	 1050.20
     78.4630	 1482.00	 1467.87	-1260.87	 1049.30
     78.4890	 1442.00	 1468.46	-1301.46	 1048.39
     78.5150	 1500.00	 1469.02	-1244.02	 1047.44
     78.5410	 1465.00	 1469.54	-1279.54	 1046.46
     78.5670	 1462.00	 1470.01	-1283.01	 1045.46
     78.5930	 1427.00	 1470.43	-1318.43	 1044.43
     78.6190	 1469.00	 1470.78	-1276.78	 1043.36
     78.6450	 1505.00	 1471.06	-1241.06	 1042.27
     78.6710	 1529.00	 1471.26	-1217.26	 1041.15
     78.6970	 1433.00	 1471.37	-1313.37	 1039.99
     78.7230	 1462.00	 1471.37	-1284.37	 1038.80
     78.7490	 1452.00	 1471.27	-1294.27	 1037.57
     78.7750	 1463.00	 1471.05	-1283.05	 1036.32
     78.8010	 1469.00	 1470.70	-1276.70	 1035.02
     78.8270	 1446.00	 1470.21	-1299.21	 1033.70
     78.8530	 1475.00	 1469.58	-1269.58	 1032.33
     78.8790	 1470.00	 1468.79	-1273.79	 1030.93
     78.9050	 1433.00	 1467.85	-1309.85	 1029.49
     78.9310	 1460.00	 1466.74	-1281.74	 1028.01
     78.9570	 1460.00	 1465.46	-1280.46	 1026.49
     78.9830	 1463.00	 1464.00	-1276.00	 1024.93
     79.0090	 1458.00	 1462.37	-1279.37	 1023.33
     79.0350	 1450.00	 1460.56	-1285.56	 1021.69
     79.0610	 1448.00	 1458.57	-1285.57	 1020.01
     79.0870	 1423.00	 1456.40	-1308.40	 1018.28
     79.1130	 1491.00	 1454.04	-1238.04	 1016.51
     79.1390	 1435.00	 1451.52	-1291.52	 1014.70
     79.1650	 1397.00	 1448.81	-1326.81	 1012.83
     79.1910	 1425.00	 1445.94	-1295.94	 1010.92
     79.2170	 1402.00	 1442.91	-1315.91	 1008.96
     79.2430	 1407.00	 1439.72	-1307.72	 1006.96
     79.2690	 1413.00	 1436.37	-1298.37	 1004.90
     79.2950	 1441.00	 1432.82	-1266.82	 1002.80
     79.3210	 1456.00	 1429.19	-1248.19	 1000.64
     79.3470	 1406.00	 1425.42	-1294.42	  998.43
     79.3730	 1389.00	 1421.54	-1307.54	  996.16
     79.3990	 1399.00	 1417.53	-1293.53	  993.84
     79.4250	 1388.00	 1413.41	-1300.41	  991.47
     79.4510	 1414.00	 1409.17	-1270.17	  989.04
     79.4770	 1435.00	 1404.85	-1244.85	  986.55
     79.5030	 1379.00	 1400.45	-1296.45	  984.00
     79.5290	 1326.00	 1395.97	-1344.97	  981.40
     79.5550	 1372.00	 1391.41	-1294.41	  978.73
     79.5810	 1362.00	 1386.77	-1299.77	  976.00
     79.6070	 1374.00	 1382.07	-1283.07	  973.21
     79.6330	 1407.00	 1377.31	-1245.31	  970.35
     79.6590	 1387.00	 1372.49	-1260.49	  967.43
     79.6850	 1369.00	 1367.62	-1273.62	  964.45
     79.7110	 1369.00	 1362.70	-1268.70	  961.39
     79.7370	 1360.00	 1357.73	-1272.73	  958.27
     79.7630	 1348.00	 1352.71	-1279.71	  955.08
     79.7890	 1358.00	 1347.65	-1264.65	  951.81
     79.8150	 1353.00	 1342.54	-1264.54	  948.48
     79.8410	 1392.00	 1337.39	-1220.39	  945.07
     79.8670	 1399.00	 1332.20	-1208.20	  941.58
     18.2901	        	        	        	        	       0	(  1  1  1)	  0  1
     18.3364	        	        	        	        	       0	(  1  1  1)	  0  2
     30.0854	        	        	        	        	       0	(  2  2  0)	  0  1
     30.1627	        	        	        	        	       0	(  2  2  0)	  0  2
     35.4365	        	        	        	        	       0	(  3  1  1)	  0  1
     35.5284	        	        	        	        	       0	(  3  1  1)	  0  2
     37.0682	        	        	        	        	       0	(  2  2  2)	  0  1
     37.1647	        	        	        	        	       0	(  2  2  2)	  0  2
     43.0668	        	        	        	        	       0	(  4  0  0)	  0  1
     43.1803	        	        	        	        	       0	(  4  0  0)	  0  2
     47.1534	        	        	        	        	       0	(  3  3  1)	  0  1
     47.2790	        	        	        	        	       0	(  3  3  1)	  0  2
     53.4277	        	        	        	        	       0	(  4  2  2)	  0  1
     53.5725	        	        	        	        	       0	(  4  2  2)	  0  2
     56.9537	        	        	        	        	       0	(  3  3  3)	  0  1
     56.9537	        	        	        	        	       0	(  5  1  1)	  0  1
     57.1098	        	        	        	        	       0	(  3  3  3)	  0  2
     57.1098	        	        	        	        	       0	(  5  1  1)	  0  2
     62.5409	        	        	        	        	       0	(  4  4  0)	  0  1
     62.7156	        	        	        	        	       0	(  4  4  0)	  0  2
     65.7578	        	        	        	        	       0	(  5  3  1)	  0  1
     65.9438	        	        	        	        	       0	(  5  3  1)	  0  2
     66.8117	        	        	        	        	       0	(  4  4  2)	  0  1
     67.0014	        	        	        	        	       0	(  4  4  2)	  0  2
     70.9499	        	        	        	        	       0	(  6  2  0)	  0  1
     71.1550	        	        	        	        	       0	(  6  2  0)	  0  2
     73.9859	        	        	        	        	       0	(  5  3  3)	  0  1
     74.2027	        	        	        	        	       0	(  5  3  3)	  0  2
     74.9873	        	        	        	        	       0	(  6  2  2)	  0  1
     75.2080	        	        	        	        	       0	(  6  2  2)	  0  2
     78.9496	        	        	        	        	       0	(  4  4  4)	  0  1
     79.1866	        	        	        	        	       0	(  4  4  4)	  0  2
