 AH11    CELL:    8.39488   8.39488   8.39488   90.0000   90.0000   90.0000   SPGR: F d -3 m               TEMP:      0.00
  1   2495     1.54056     1.54443     0.00000     0.00000     0.00000    0
    32     0     0
 2Theta	Yobs	Ycal	Yobs-Ycal	Backg	Posr	(hkl)	K
     15.0230	 2614.00	 2627.85	-1296.48	 2270.86
     15.0490	 2693.00	 2626.27	-1215.90	 2269.00
     15.0750	 2689.00	 2624.70	-1218.33	 2267.14
     15.1010	 2630.00	 2623.13	-1275.76	 2265.27
     15.1270	 2704.00	 2621.57	-1200.21	 2263.41
     15.1530	 2679.00	 2620.02	-1223.66	 2261.55
     15.1790	 2604.00	 2618.48	-1297.11	 2259.69
     15.2050	 2722.00	 2616.94	-1177.58	 2257.83
     15.2310	 2679.00	 2615.42	-1219.05	 2255.97
     15.2570	 2696.00	 2613.90	-1200.53	 2254.11
     15.2830	 2660.00	 2612.38	-1235.02	 2252.25
     15.3090	 2715.00	 2610.88	-1178.51	 2250.39
     15.3350	 2649.00	 2609.39	-1243.02	 2248.52
     15.3610	 2737.00	 2607.90	-1153.53	 2246.66
     15.3870	 2628.00	 2606.42	-1261.06	 2244.80
     15.4130	 2614.00	 2604.96	-1273.59	 2242.94
     15.4390	 2686.00	 2603.50	-1200.13	 2241.08
     15.4650	 2622.00	 2602.05	-1262.69	 2239.22
     15.4910	 2557.00	 2600.62	-1326.25	 2237.36
     15.5170	 2668.00	 2599.20	-1213.83	 2235.50
     15.5430	 2630.00	 2597.78	-1250.41	 2233.64
     15.5690	 2600.00	 2596.38	-1279.01	 2231.77
     15.5950	 2649.00	 2594.99	-1228.63	 2229.91
     15.6210	 2625.00	 2593.62	-1251.25	 2228.05
     15.6470	 2647.00	 2592.26	-1227.89	 2226.19
     15.6730	 2662.00	 2590.91	-1211.54	 2224.33
     15.6990	 2657.00	 2589.57	-1215.20	 2222.47
     15.7250	 2639.00	 2588.25	-1231.89	 2220.61
     15.7510	 2698.00	 2586.95	-1171.58	 2218.75
     15.7770	 2695.00	 2585.66	-1173.29	 2216.89
     15.8030	 2626.00	 2584.39	-1241.02	 2215.02
     15.8290	 2589.00	 2583.14	-1276.77	 2213.16
     15.8550	 2653.00	 2581.90	-1211.53	 2211.30
     15.8810	 2611.00	 2580.68	-1252.31	 2209.44
     15.9070	 2578.00	 2581.78	-1286.41	 2209.88
     15.9330	 2556.00	 2587.62	-1314.25	 2215.04
     15.9590	 2709.00	 2593.49	-1167.12	 2220.20
     15.9850	 2744.00	 2599.37	-1138.00	 2225.36
     16.0110	 2716.00	 2605.28	-1171.91	 2230.52
     16.0370	 2665.00	 2611.21	-1228.84	 2235.68
     16.0630	 2727.00	 2617.17	-1172.80	 2240.84
     16.0890	 2687.00	 2623.15	-1218.78	 2246.00
     16.1150	 2738.00	 2629.16	-1173.79	 2251.16
     16.1410	 2709.00	 2635.20	-1208.83	 2256.32
     16.1670	 2738.00	 2641.27	-1185.90	 2261.48
     16.1930	 2678.00	 2647.36	-1252.00	 2266.64
     16.2190	 2711.00	 2653.49	-1225.12	 2271.80
     16.2450	 2634.00	 2659.66	-1308.29	 2276.97
     16.2710	 2690.00	 2665.85	-1258.48	 2282.13
     16.2970	 2766.00	 2672.09	-1188.72	 2287.29
     16.3230	 2770.00	 2678.36	-1190.99	 2292.45
     16.3490	 2768.00	 2684.67	-1199.30	 2297.61
     16.3750	 2773.00	 2691.02	-1200.65	 2302.77
     16.4010	 2674.00	 2697.42	-1306.05	 2307.93
     16.4270	 2712.00	 2703.86	-1274.49	 2313.09
     16.4530	 2771.00	 2710.35	-1221.98	 2318.25
     16.4790	 2677.00	 2716.89	-1322.52	 2323.41
     16.5050	 2639.00	 2723.49	-1367.12	 2328.57
     16.5310	 2746.00	 2730.14	-1266.77	 2333.73
     16.5570	 2762.00	 2736.84	-1257.48	 2338.90
     16.5830	 2678.00	 2743.61	-1348.25	 2344.06
     16.6090	 2700.00	 2750.45	-1333.08	 2349.22
     16.6350	 2780.00	 2757.35	-1259.98	 2354.38
     16.6610	 2786.00	 2764.33	-1260.96	 2359.54
     16.6870	 2798.00	 2771.38	-1256.01	 2364.70
     16.7130	 2816.00	 2778.51	-1245.14	 2369.86
     16.7390	 2840.00	 2785.72	-1228.35	 2375.02
     16.7650	 2801.00	 2793.03	-1274.66	 2380.18
     16.7910	 2776.00	 2800.42	-1307.06	 2385.34
     16.8170	 2845.00	 2807.92	-1245.55	 2390.50
     16.8430	 2875.00	 2815.52	-1223.15	 2395.66
     16.8690	 2853.00	 2823.24	-1252.87	 2400.83
     16.8950	 2839.00	 2831.07	-1274.70	 2405.99
     16.9210	 2833.00	 2839.02	-1288.65	 2411.15
     16.9470	 2833.00	 2847.11	-1296.74	 2416.31
     16.9730	 2915.00	 2855.33	-1222.97	 2421.47
     16.9990	 2961.00	 2863.71	-1185.34	 2426.63
     17.0250	 2921.00	 2872.24	-1233.87	 2431.79
     17.0510	 2877.00	 2880.94	-1286.57	 2436.95
     17.0770	 2849.00	 2889.82	-1323.45	 2442.11
     17.1030	 2852.00	 2898.89	-1329.52	 2447.27
     17.1290	 2819.00	 2908.15	-1371.78	 2452.43
     17.1550	 2894.00	 2917.63	-1306.26	 2457.59
     17.1810	 2906.00	 2927.33	-1303.97	 2462.76
     17.2070	 2922.00	 2937.28	-1297.91	 2467.92
     17.2330	 2913.00	 2947.48	-1317.11	 2473.08
     17.2590	 2894.00	 2957.96	-1346.59	 2478.24
     17.2850	 2906.00	 2968.72	-1345.35	 2483.40
     17.3110	 2967.00	 2979.79	-1295.42	 2488.56
     17.3370	 2951.00	 2991.19	-1322.82	 2493.72
     17.3630	 2949.00	 3002.93	-1336.57	 2498.88
     17.3890	 3055.00	 3015.05	-1242.68	 2504.04
     17.4150	 2976.00	 3027.56	-1334.19	 2509.20
     17.4410	 3094.00	 3040.48	-1229.11	 2514.36
     17.4670	 3035.00	 3053.85	-1301.48	 2519.52
     17.4930	 3050.00	 3067.68	-1300.31	 2524.69
     17.5190	 3112.00	 3082.01	-1252.64	 2529.85
     17.5450	 3044.00	 3096.85	-1335.48	 2535.01
     17.5710	 3030.00	 3112.25	-1364.88	 2540.17
     17.5970	 3018.00	 3128.21	-1392.85	 2545.33
     17.6230	 3089.00	 3144.78	-1338.42	 2550.49
     17.6490	 3027.00	 3161.98	-1417.61	 2555.65
     17.6750	 3088.00	 3179.83	-1374.46	 2560.81
     17.7010	 3037.00	 3198.34	-1443.97	 2565.97
     17.7270	 3091.00	 3217.54	-1409.17	 2571.13
     17.7530	 3060.00	 3237.43	-1460.06	 2576.29
     17.7790	 3149.00	 3258.02	-1391.65	 2581.45
     17.8050	 3177.00	 3279.29	-1384.92	 2586.61
     17.8310	 3217.00	 3301.24	-1366.87	 2591.78
     17.8570	 3242.00	 3323.82	-1364.45	 2596.94
     17.8830	 3263.00	 3346.98	-1366.61	 2602.10
     17.9090	 3249.00	 3370.65	-1404.28	 2607.26
     17.9350	 3270.00	 3394.74	-1407.37	 2612.42
     17.9610	 3292.00	 3419.12	-1409.75	 2617.58
     17.9870	 3336.00	 3443.64	-1390.27	 2622.74
     18.0130	 3260.00	 3468.13	-1490.76	 2627.90
     18.0390	 3282.00	 3492.38	-1493.01	 2633.06
     18.0650	 3266.00	 3516.14	-1532.77	 2638.22
     18.0910	 3407.00	 3539.14	-1414.77	 2643.38
     18.1170	 3348.00	 3561.12	-1495.75	 2648.54
     18.1430	 3347.00	 3581.76	-1517.39	 2653.71
     18.1690	 3436.00	 3600.76	-1447.39	 2658.87
     18.1950	 3392.00	 3617.84	-1508.48	 2664.03
     18.2210	 3369.00	 3632.74	-1546.37	 2669.19
     18.2470	 3448.00	 3645.21	-1479.84	 2674.35
     18.2730	 3558.00	 3655.08	-1379.71	 2679.51
     18.2990	 3464.00	 3662.23	-1480.86	 2684.67
     18.3250	 3515.00	 3666.61	-1434.25	 2689.83
     18.3510	 3440.00	 3668.25	-1510.88	 2694.99
     18.3770	 3466.00	 3667.23	-1483.86	 2700.15
     18.4030	 3463.00	 3663.70	-1483.33	 2705.31
     18.4290	 3449.00	 3657.89	-1491.52	 2710.47
     18.4550	 3417.00	 3650.03	-1515.66	 2715.64
     18.4810	 3344.00	 3640.41	-1579.04	 2720.80
     18.5070	 3444.00	 3629.34	-1467.97	 2725.96
     18.5330	 3324.00	 3617.10	-1575.73	 2731.12
     18.5590	 3446.00	 3603.99	-1440.62	 2736.28
     18.5850	 3359.00	 3590.29	-1513.92	 2741.44
     18.6110	 3412.00	 3576.24	-1446.87	 2746.60
     18.6370	 3484.00	 3562.07	-1360.70	 2751.76
     18.6630	 3377.00	 3547.97	-1453.60	 2756.92
     18.6890	 3435.00	 3534.10	-1381.74	 2762.08
     18.7150	 3436.00	 3520.60	-1367.24	 2767.24
     18.7410	 3427.00	 3507.58	-1363.21	 2772.40
     18.7670	 3334.00	 3495.10	-1443.73	 2777.57
     18.7930	 3362.00	 3483.24	-1403.87	 2782.73
     18.8190	 3373.00	 3472.04	-1381.67	 2787.89
     18.8450	 3328.00	 3460.19	-1414.82	 2791.72
     18.8710	 3308.00	 3448.88	-1423.51	 2795.41
     18.8970	 3306.00	 3438.27	-1414.90	 2799.09
     18.9230	 3380.00	 3428.35	-1330.98	 2802.78
     18.9490	 3390.00	 3419.11	-1311.74	 2806.46
     18.9750	 3311.00	 3410.52	-1382.15	 2810.15
     19.0010	 3313.00	 3402.57	-1372.20	 2813.83
     19.0270	 3317.00	 3395.23	-1360.86	 2817.52
     19.0530	 3339.00	 3388.48	-1332.11	 2821.20
     19.0790	 3314.00	 3382.28	-1350.91	 2824.89
     19.1050	 3319.00	 3376.62	-1340.25	 2828.57
     19.1310	 3333.00	 3371.47	-1321.10	 2832.26
     19.1570	 3305.00	 3366.79	-1344.42	 2835.94
     19.1830	 3377.00	 3362.56	-1268.19	 2839.63
     19.2090	 3421.00	 3358.76	-1220.39	 2843.32
     19.2350	 3353.00	 3355.37	-1285.00	 2847.00
     19.2610	 3292.00	 3352.35	-1342.98	 2850.69
     19.2870	 3333.00	 3349.69	-1299.32	 2854.37
     19.3130	 3320.00	 3347.36	-1310.00	 2858.06
     19.3390	 3288.00	 3345.36	-1339.99	 2861.74
     19.3650	 3294.00	 3343.65	-1332.28	 2865.43
     19.3910	 3309.00	 3342.21	-1315.85	 2869.11
     19.4170	 3344.00	 3341.05	-1279.68	 2872.80
     19.4430	 3294.00	 3340.13	-1328.76	 2876.48
     19.4690	 3276.00	 3339.44	-1346.07	 2880.17
     19.4950	 3384.00	 3338.97	-1237.60	 2883.85
     19.5210	 3393.00	 3338.70	-1228.33	 2887.54
     19.5470	 3301.00	 3338.95	-1320.58	 2891.23
     19.5730	 3228.00	 3339.06	-1393.70	 2894.91
     19.5990	 3245.00	 3339.35	-1376.98	 2898.60
     19.6250	 3355.00	 3339.79	-1267.42	 2902.28
     19.6510	 3411.00	 3340.55	-1212.18	 2905.97
     19.6770	 3439.00	 3341.29	-1184.92	 2909.65
     19.7030	 3367.00	 3342.17	-1257.80	 2913.34
     19.7290	 3314.00	 3343.17	-1311.80	 2917.02
     19.7550	 3417.00	 3344.30	-1209.93	 2920.71
     19.7810	 3431.00	 3345.54	-1197.17	 2924.39
     19.8070	 3431.00	 3346.88	-1198.51	 2928.08
     19.8330	 3385.00	 3348.33	-1245.96	 2931.76
     19.8590	 3346.00	 3349.88	-1286.51	 2935.45
     19.8850	 3384.00	 3351.51	-1250.14	 2939.14
     19.9110	 3329.00	 3353.23	-1306.87	 2942.82
     19.9370	 3311.00	 3355.04	-1326.67	 2946.51
     19.9630	 3366.00	 3356.92	-1273.55	 2950.19
     19.9890	 3402.00	 3358.88	-1239.51	 2953.88
     20.0150	 3419.00	 3360.90	-1224.53	 2957.56
     20.0410	 3477.00	 3362.99	-1168.62	 2961.25
     20.0670	 3404.00	 3365.15	-1243.78	 2964.93
     20.0930	 3400.00	 3367.36	-1249.99	 2968.62
     20.1190	 3376.00	 3369.63	-1276.26	 2972.30
     20.1450	 3491.00	 3371.96	-1163.59	 2975.99
     20.1710	 3491.00	 3374.34	-1165.97	 2979.68
     20.1970	 3532.00	 3376.76	-1127.39	 2983.36
     20.2230	 3460.00	 3379.24	-1201.87	 2987.05
     20.2490	 3401.00	 3381.76	-1263.39	 2990.73
     20.2750	 3465.00	 3384.32	-1201.95	 2994.42
     20.3010	 3514.00	 3386.92	-1155.55	 2998.10
     20.3270	 3429.00	 3389.56	-1243.19	 3001.79
     20.3530	 3375.00	 3392.24	-1299.87	 3005.47
     20.3790	 3444.00	 3394.95	-1233.58	 3009.16
     20.4050	 3460.00	 3397.70	-1220.33	 3012.84
     20.4310	 3523.00	 3400.48	-1160.11	 3016.53
     20.4570	 3514.00	 3403.29	-1171.92	 3020.21
     20.4830	 3406.00	 3406.13	-1282.76	 3023.90
     20.5090	 3388.00	 3409.00	-1303.64	 3027.59
     20.5350	 3387.00	 3411.90	-1307.53	 3031.27
     20.5610	 3566.00	 3414.82	-1131.46	 3034.96
     20.5870	 3589.00	 3417.77	-1111.41	 3038.64
     20.6130	 3424.00	 3420.75	-1279.38	 3042.33
     20.6390	 3442.00	 3423.74	-1264.38	 3046.01
     20.6650	 3460.00	 3426.76	-1249.39	 3049.70
     20.6910	 3425.00	 3429.80	-1287.43	 3053.38
     20.7170	 3504.00	 3432.86	-1211.50	 3057.07
     20.7430	 3537.00	 3435.95	-1181.58	 3060.75
     20.7690	 3465.00	 3439.05	-1256.68	 3064.44
     20.7950	 3484.00	 3442.16	-1240.79	 3068.12
     20.8210	 3426.00	 3445.30	-1301.93	 3071.81
     20.8470	 3490.00	 3448.45	-1241.08	 3075.50
     20.8730	 3576.00	 3451.62	-1158.25	 3079.18
     20.8990	 3538.00	 3454.81	-1199.44	 3082.87
     20.9250	 3544.00	 3458.01	-1196.64	 3086.55
     20.9510	 3439.00	 3461.22	-1304.85	 3090.24
     20.9770	 3494.00	 3464.45	-1253.08	 3093.92
     21.0030	 3446.00	 3467.70	-1304.33	 3097.61
     21.0290	 3542.00	 3470.95	-1211.58	 3101.29
     21.0550	 3485.00	 3474.22	-1271.85	 3104.98
     21.0810	 3552.00	 3477.50	-1208.13	 3108.66
     21.1070	 3514.00	 3480.80	-1249.43	 3112.35
     21.1330	 3519.00	 3484.10	-1247.73	 3116.03
     21.1590	 3608.00	 3487.42	-1162.05	 3119.72
     21.1850	 3595.00	 3490.74	-1178.38	 3123.41
     21.2110	 3572.00	 3494.08	-1204.71	 3127.09
     21.2370	 3580.00	 3497.43	-1200.06	 3130.78
     21.2630	 3643.00	 3500.79	-1140.42	 3134.46
     21.2890	 3566.00	 3504.15	-1220.78	 3138.15
     21.3150	 3528.00	 3507.53	-1262.16	 3141.83
     21.3410	 3515.00	 3510.91	-1278.55	 3145.52
     21.3670	 3511.00	 3514.31	-1285.94	 3149.20
     21.3930	 3531.00	 3517.71	-1269.34	 3152.89
     21.4190	 3643.00	 3521.12	-1160.75	 3156.57
     21.4450	 3571.00	 3524.54	-1236.17	 3160.26
     21.4710	 3535.00	 3527.96	-1275.59	 3163.95
     21.4970	 3601.00	 3531.39	-1213.03	 3167.63
     21.5230	 3689.00	 3531.74	-1125.37	 3168.22
     21.5490	 3583.00	 3532.05	-1231.68	 3168.77
     21.5750	 3632.00	 3532.36	-1182.99	 3169.31
     21.6010	 3675.00	 3532.68	-1140.31	 3169.86
     21.6270	 3623.00	 3533.01	-1192.64	 3170.40
     21.6530	 3592.00	 3533.34	-1223.97	 3170.95
     21.6790	 3592.00	 3533.68	-1224.31	 3171.49
     21.7050	 3675.00	 3534.02	-1141.66	 3172.04
     21.7310	 3590.00	 3534.37	-1227.01	 3172.58
     21.7570	 3535.00	 3534.73	-1282.36	 3173.13
     21.7830	 3580.00	 3535.09	-1237.72	 3173.67
     21.8090	 3616.00	 3535.46	-1202.09	 3174.22
     21.8350	 3641.00	 3535.83	-1177.46	 3174.76
     21.8610	 3645.00	 3536.21	-1173.84	 3175.31
     21.8870	 3595.00	 3536.59	-1224.22	 3175.85
     21.9130	 3536.00	 3536.97	-1283.61	 3176.40
     21.9390	 3532.00	 3537.37	-1288.00	 3176.94
     21.9650	 3585.00	 3537.76	-1235.39	 3177.49
     21.9910	 3622.00	 3538.16	-1198.79	 3178.03
     22.0170	 3655.00	 3538.57	-1166.20	 3178.58
     22.0430	 3635.00	 3538.98	-1186.61	 3179.12
     22.0690	 3632.00	 3539.39	-1190.02	 3179.67
     22.0950	 3676.00	 3539.81	-1146.44	 3180.21
     22.1210	 3608.00	 3540.23	-1214.86	 3180.76
     22.1470	 3547.00	 3540.65	-1276.28	 3181.30
     22.1730	 3608.00	 3541.08	-1215.71	 3181.85
     22.1990	 3592.00	 3541.52	-1232.15	 3182.39
     22.2250	 3527.00	 3541.95	-1297.58	 3182.94
     22.2510	 3602.00	 3542.39	-1223.02	 3183.48
     22.2770	 3627.00	 3542.83	-1198.47	 3184.03
     22.3030	 3617.00	 3543.28	-1208.91	 3184.57
     22.3290	 3635.00	 3543.73	-1191.36	 3185.12
     22.3550	 3655.00	 3544.19	-1171.82	 3185.66
     22.3810	 3687.00	 3544.64	-1140.27	 3186.21
     22.4070	 3689.00	 3545.10	-1138.73	 3186.75
     22.4330	 3635.00	 3545.56	-1193.20	 3187.30
     22.4590	 3618.00	 3546.03	-1210.66	 3187.84
     22.4850	 3662.00	 3546.50	-1167.13	 3188.39
     22.5110	 3695.00	 3546.97	-1134.60	 3188.93
     22.5370	 3631.00	 3547.45	-1199.08	 3189.48
     22.5630	 3544.00	 3547.92	-1286.56	 3190.02
     22.5890	 3619.00	 3548.41	-1212.04	 3190.57
     22.6150	 3684.00	 3548.89	-1147.52	 3191.11
     22.6410	 3621.00	 3549.37	-1211.01	 3191.66
     22.6670	 3661.00	 3549.86	-1171.49	 3192.20
     22.6930	 3675.00	 3550.35	-1157.99	 3192.75
     22.7190	 3723.00	 3550.85	-1110.48	 3193.29
     22.7450	 3659.00	 3551.34	-1174.98	 3193.84
     22.7710	 3580.00	 3551.84	-1254.47	 3194.38
     22.7970	 3573.00	 3552.34	-1261.98	 3194.93
     22.8230	 3615.00	 3552.85	-1220.48	 3195.47
     22.8490	 3544.00	 3553.35	-1291.99	 3196.01
     22.8750	 3647.00	 3553.86	-1189.49	 3196.56
     22.9010	 3694.00	 3554.37	-1143.00	 3197.10
     22.9270	 3723.00	 3554.89	-1114.52	 3197.65
     22.9530	 3689.00	 3555.40	-1149.03	 3198.19
     22.9790	 3687.00	 3555.92	-1151.55	 3198.74
     23.0050	 3619.00	 3556.44	-1220.07	 3199.28
     23.0310	 3623.00	 3556.96	-1216.59	 3199.83
     23.0570	 3701.00	 3557.49	-1139.12	 3200.37
     23.0830	 3565.00	 3558.01	-1275.64	 3200.92
     23.1090	 3568.00	 3558.54	-1273.17	 3201.46
     23.1350	 3616.00	 3559.07	-1225.70	 3202.01
     23.1610	 3609.00	 3559.60	-1233.23	 3202.55
     23.1870	 3637.00	 3560.14	-1205.77	 3203.10
     23.2130	 3620.00	 3560.67	-1223.31	 3203.64
     23.2390	 3620.00	 3561.21	-1223.84	 3204.19
     23.2650	 3707.00	 3561.75	-1137.39	 3204.73
     23.2910	 3739.00	 3562.34	-1105.97	 3205.28
     23.3170	 3734.00	 3562.88	-1111.51	 3205.82
     23.3430	 3594.00	 3563.43	-1252.06	 3206.37
     23.3690	 3543.00	 3563.98	-1303.61	 3206.91
     23.3950	 3602.00	 3564.55	-1245.18	 3207.46
     23.4210	 3498.00	 3565.10	-1349.73	 3208.00
     23.4470	 3652.00	 3565.66	-1196.29	 3208.55
     23.4730	 3587.00	 3566.21	-1261.84	 3209.09
     23.4990	 3758.00	 3566.77	-1091.40	 3209.64
     23.5250	 3660.00	 3567.33	-1189.96	 3210.18
     23.5510	 3701.00	 3567.89	-1149.53	 3210.73
     23.5770	 3714.00	 3568.46	-1137.09	 3211.27
     23.6030	 3682.00	 3569.02	-1169.65	 3211.82
     23.6290	 3586.00	 3569.59	-1266.22	 3212.36
     23.6550	 3575.00	 3570.16	-1277.79	 3212.91
     23.6810	 3742.00	 3570.73	-1111.36	 3213.45
     23.7070	 3586.00	 3571.30	-1267.94	 3214.00
     23.7330	 3552.00	 3571.88	-1302.51	 3214.54
     23.7590	 3589.00	 3572.46	-1266.09	 3215.09
     23.7850	 3639.00	 3573.04	-1216.67	 3215.63
     23.8110	 3650.00	 3573.62	-1206.25	 3216.18
     23.8370	 3609.00	 3574.20	-1247.83	 3216.72
     23.8630	 3623.00	 3574.78	-1234.41	 3217.27
     23.8890	 3699.00	 3575.37	-1159.00	 3217.81
     23.9150	 3657.00	 3575.96	-1201.59	 3218.36
     23.9410	 3528.00	 3576.55	-1331.18	 3218.90
     23.9670	 3635.00	 3577.14	-1224.77	 3219.45
     23.9930	 3606.00	 3577.73	-1254.36	 3219.99
     24.0190	 3560.00	 3578.33	-1300.96	 3220.54
     24.0450	 3611.00	 3578.92	-1250.56	 3221.08
     24.0710	 3570.00	 3579.52	-1292.15	 3221.63
     24.0970	 3639.00	 3580.12	-1223.75	 3222.17
     24.1230	 3559.00	 3580.73	-1304.36	 3222.72
     24.1490	 3595.00	 3581.33	-1268.96	 3223.26
     24.1750	 3605.00	 3581.94	-1259.57	 3223.81
     24.2010	 3592.00	 3582.54	-1273.18	 3224.35
     24.2270	 3592.00	 3583.16	-1273.79	 3224.90
     24.2530	 3599.00	 3583.77	-1267.40	 3225.44
     24.2790	 3597.00	 3584.38	-1270.01	 3225.99
     24.3050	 3597.00	 3585.00	-1270.63	 3226.53
     24.3310	 3627.00	 3585.61	-1241.25	 3227.08
     24.3570	 3643.00	 3586.23	-1225.87	 3227.62
     24.3830	 3626.00	 3586.86	-1243.49	 3228.17
     24.4090	 3668.00	 3587.48	-1202.11	 3228.71
     24.4350	 3631.00	 3588.11	-1239.74	 3229.25
     24.4610	 3638.00	 3588.73	-1233.36	 3229.80
     24.4870	 3655.00	 3589.36	-1216.99	 3230.34
     24.5130	 3655.00	 3589.99	-1217.63	 3230.89
     24.5390	 3632.00	 3590.63	-1241.26	 3231.43
     24.5650	 3582.00	 3591.26	-1291.90	 3231.98
     24.5910	 3621.00	 3591.90	-1253.53	 3232.52
     24.6170	 3609.00	 3592.54	-1266.17	 3233.07
     24.6430	 3543.00	 3593.18	-1332.82	 3233.61
     24.6690	 3579.00	 3593.83	-1297.46	 3234.16
     24.6950	 3670.00	 3594.47	-1207.11	 3234.70
     24.7210	 3694.00	 3595.12	-1183.75	 3235.25
     24.7470	 3692.00	 3595.77	-1186.41	 3235.79
     24.7730	 3743.00	 3596.43	-1136.06	 3236.34
     24.7990	 3702.00	 3597.08	-1177.71	 3236.88
     24.8250	 3660.00	 3597.74	-1220.37	 3237.43
     24.8510	 3645.00	 3598.40	-1236.03	 3237.97
     24.8770	 3535.00	 3599.06	-1346.69	 3238.52
     24.9030	 3563.00	 3599.73	-1319.36	 3239.06
     24.9290	 3646.00	 3600.39	-1237.03	 3239.61
     24.9550	 3665.00	 3601.06	-1218.70	 3240.15
     24.9810	 3658.00	 3601.74	-1226.37	 3240.70
     25.0070	 3663.00	 3602.41	-1222.04	 3241.24
     25.0330	 3713.00	 3603.09	-1172.72	 3241.79
     25.0590	 3701.00	 3603.77	-1185.40	 3242.33
     25.0850	 3669.00	 3604.45	-1218.08	 3242.88
     25.1110	 3621.00	 3605.13	-1266.76	 3243.42
     25.1370	 3536.00	 3605.82	-1352.45	 3243.97
     25.1630	 3567.00	 3606.51	-1322.14	 3244.51
     25.1890	 3672.00	 3607.20	-1217.83	 3245.06
     25.2150	 3655.00	 3607.90	-1235.53	 3245.60
     25.2410	 3535.00	 3608.60	-1356.23	 3246.15
     25.2670	 3554.00	 3609.30	-1337.93	 3246.69
     25.2930	 3660.00	 3610.00	-1232.63	 3247.24
     25.3190	 3620.00	 3610.71	-1273.34	 3247.78
     25.3450	 3581.00	 3611.42	-1313.05	 3248.33
     25.3710	 3544.00	 3612.13	-1350.77	 3248.87
     25.3970	 3607.00	 3612.85	-1288.48	 3249.42
     25.4230	 3634.00	 3613.57	-1262.20	 3249.96
     25.4490	 3536.00	 3614.29	-1360.92	 3250.51
     25.4750	 3586.00	 3615.02	-1311.65	 3251.05
     25.5010	 3639.00	 3615.75	-1259.38	 3251.60
     25.5270	 3607.00	 3616.48	-1292.11	 3252.14
     25.5530	 3641.00	 3617.22	-1258.85	 3252.69
     25.5790	 3655.00	 3617.96	-1245.59	 3253.23
     25.6050	 3589.00	 3618.70	-1312.33	 3253.78
     25.6310	 3620.00	 3619.45	-1282.08	 3254.32
     25.6570	 3566.00	 3620.20	-1336.83	 3254.87
     25.6830	 3613.00	 3620.95	-1290.58	 3255.41
     25.7090	 3664.00	 3621.71	-1240.34	 3255.96
     25.7350	 3589.00	 3622.47	-1316.10	 3256.50
     25.7610	 3721.00	 3623.24	-1184.87	 3257.05
     25.7870	 3535.00	 3624.01	-1371.64	 3257.59
     25.8130	 3613.00	 3624.78	-1294.42	 3258.14
     25.8390	 3672.00	 3625.56	-1236.20	 3258.68
     25.8650	 3674.00	 3626.35	-1234.98	 3259.23
     25.8910	 3591.00	 3627.13	-1318.77	 3259.77
     25.9170	 3624.00	 3627.93	-1286.56	 3260.32
     25.9430	 3522.00	 3628.72	-1389.35	 3260.86
     25.9690	 3620.00	 3629.53	-1292.16	 3261.41
     25.9950	 3638.00	 3630.33	-1274.96	 3261.95
     26.0210	 3590.00	 3631.14	-1323.77	 3262.49
     26.0470	 3551.00	 3631.96	-1363.59	 3263.04
     26.0730	 3635.00	 3632.78	-1280.41	 3263.58
     26.0990	 3599.00	 3633.61	-1317.24	 3264.13
     26.1250	 3586.00	 3634.44	-1331.07	 3264.67
     26.1510	 3599.00	 3634.26	-1317.89	 3264.20
     26.1770	 3514.00	 3632.59	-1401.22	 3262.23
     26.2030	 3584.00	 3630.93	-1329.56	 3260.27
     26.2290	 3678.00	 3629.27	-1233.90	 3258.30
     26.2550	 3744.00	 3627.61	-1166.24	 3256.33
     26.2810	 3678.00	 3625.97	-1230.60	 3254.36
     26.3070	 3626.00	 3624.32	-1280.96	 3252.39
     26.3330	 3551.00	 3622.69	-1354.32	 3250.42
     26.3590	 3654.00	 3621.06	-1249.69	 3248.45
     26.3850	 3553.00	 3619.44	-1349.07	 3246.48
     26.4110	 3547.00	 3617.83	-1353.46	 3244.51
     26.4370	 3634.00	 3616.22	-1264.85	 3242.54
     26.4630	 3538.00	 3614.62	-1359.25	 3240.57
     26.4890	 3535.00	 3613.03	-1360.66	 3238.60
     26.5150	 3624.00	 3611.45	-1270.08	 3236.63
     26.5410	 3536.00	 3609.87	-1356.50	 3234.66
     26.5670	 3585.00	 3608.30	-1305.93	 3232.69
     26.5930	 3569.00	 3606.74	-1320.37	 3230.73
     26.6190	 3584.00	 3605.19	-1303.82	 3228.76
     26.6450	 3583.00	 3603.65	-1303.28	 3226.79
     26.6710	 3612.00	 3602.11	-1272.75	 3224.82
     26.6970	 3499.00	 3600.59	-1384.22	 3222.85
     26.7230	 3591.00	 3599.08	-1290.71	 3220.88
     26.7490	 3548.00	 3597.57	-1332.20	 3218.91
     26.7750	 3598.00	 3596.08	-1280.71	 3216.94
     26.8010	 3580.00	 3594.59	-1297.22	 3214.97
     26.8270	 3578.00	 3593.12	-1297.75	 3213.00
     26.8530	 3592.00	 3591.66	-1282.29	 3211.03
     26.8790	 3687.00	 3590.20	-1185.84	 3209.06
     26.9050	 3621.00	 3588.76	-1250.40	 3207.09
     26.9310	 3642.00	 3587.34	-1227.97	 3205.12
     26.9570	 3625.00	 3585.92	-1243.55	 3203.15
     26.9830	 3539.00	 3584.52	-1328.15	 3201.19
     27.0090	 3521.00	 3583.13	-1344.76	 3199.22
     27.0350	 3523.00	 3581.75	-1341.38	 3197.25
     27.0610	 3596.00	 3580.39	-1267.02	 3195.28
     27.0870	 3649.00	 3579.04	-1212.67	 3193.31
     27.1130	 3589.00	 3577.71	-1271.34	 3191.34
     27.1390	 3543.00	 3576.39	-1316.02	 3189.37
     27.1650	 3573.00	 3575.09	-1284.72	 3187.40
     27.1910	 3637.00	 3573.80	-1219.43	 3185.43
     27.2170	 3648.00	 3572.53	-1207.16	 3183.46
     27.2430	 3632.00	 3571.28	-1221.91	 3181.49
     27.2690	 3632.00	 3570.04	-1220.67	 3179.52
     27.2950	 3634.00	 3568.83	-1217.46	 3177.55
     27.3210	 3569.00	 3567.63	-1281.26	 3175.58
     27.3470	 3553.00	 3566.45	-1296.08	 3173.61
     27.3730	 3595.00	 3565.30	-1252.93	 3171.64
     27.3990	 3524.00	 3564.16	-1322.79	 3169.68
     27.4250	 3485.00	 3563.05	-1360.68	 3167.71
     27.4510	 3527.00	 3561.96	-1317.59	 3165.74
     27.4770	 3545.00	 3560.89	-1298.52	 3163.77
     27.5030	 3526.00	 3559.85	-1316.48	 3161.80
     27.5290	 3567.00	 3558.83	-1274.46	 3159.83
     27.5550	 3622.00	 3557.84	-1218.47	 3157.86
     27.5810	 3609.00	 3556.87	-1230.50	 3155.89
     27.6070	 3567.00	 3555.93	-1271.57	 3153.92
     27.6330	 3520.00	 3555.03	-1317.66	 3151.95
     27.6590	 3535.00	 3554.15	-1301.78	 3149.98
     27.6850	 3575.00	 3553.30	-1260.93	 3148.01
     27.7110	 3569.00	 3552.49	-1266.12	 3146.04
     27.7370	 3550.00	 3551.71	-1284.34	 3144.07
     27.7630	 3615.00	 3550.97	-1218.60	 3142.10
     27.7890	 3662.00	 3550.26	-1170.89	 3140.14
     27.8150	 3614.00	 3549.59	-1218.22	 3138.17
     27.8410	 3521.00	 3548.96	-1310.59	 3136.20
     27.8670	 3575.00	 3548.37	-1256.00	 3134.23
     27.8930	 3544.00	 3547.83	-1286.46	 3132.26
     27.9190	 3497.00	 3547.33	-1332.96	 3130.29
     27.9450	 3638.00	 3546.87	-1191.51	 3128.32
     27.9710	 3586.00	 3546.47	-1243.10	 3126.35
     27.9970	 3542.00	 3546.12	-1286.75	 3124.38
     28.0230	 3436.00	 3545.82	-1392.45	 3122.41
     28.0490	 3437.00	 3545.57	-1391.20	 3120.44
     28.0750	 3477.00	 3545.38	-1351.02	 3118.47
     28.1010	 3441.00	 3545.26	-1386.89	 3116.50
     28.1270	 3614.00	 3545.20	-1213.83	 3114.53
     28.1530	 3545.00	 3545.20	-1282.83	 3112.56
     28.1790	 3400.00	 3545.27	-1427.90	 3110.60
     28.2050	 3553.00	 3545.42	-1275.05	 3108.63
     28.2310	 3522.00	 3545.64	-1306.27	 3106.66
     28.2570	 3490.00	 3545.94	-1338.57	 3104.69
     28.2830	 3542.00	 3546.32	-1286.95	 3102.72
     28.3090	 3657.00	 3546.80	-1172.43	 3100.75
     28.3350	 3636.00	 3547.36	-1193.99	 3098.78
     28.3610	 3489.00	 3548.02	-1341.65	 3096.81
     28.3870	 3557.00	 3548.78	-1274.42	 3094.84
     28.4130	 3483.00	 3549.65	-1349.29	 3092.87
     28.4390	 3463.00	 3550.64	-1370.27	 3090.90
     28.4650	 3507.00	 3551.74	-1327.37	 3088.93
     28.4910	 3557.00	 3552.96	-1278.59	 3086.96
     28.5170	 3492.00	 3554.32	-1344.95	 3084.99
     28.5430	 3497.00	 3555.81	-1341.44	 3083.02
     28.5690	 3516.00	 3557.45	-1324.08	 3081.06
     28.5950	 3535.00	 3559.24	-1306.88	 3079.09
     28.6210	 3615.00	 3561.20	-1228.83	 3077.12
     28.6470	 3609.00	 3563.33	-1236.96	 3075.15
     28.6730	 3538.00	 3565.64	-1310.27	 3073.18
     28.6990	 3632.00	 3568.14	-1218.77	 3071.21
     28.7250	 3540.00	 3570.84	-1313.47	 3069.24
     28.7510	 3464.00	 3573.76	-1392.39	 3067.27
     28.7770	 3566.00	 3576.90	-1293.54	 3065.30
     28.8030	 3545.00	 3580.29	-1317.92	 3063.33
     28.8290	 3587.00	 3583.93	-1279.56	 3061.36
     28.8550	 3535.00	 3587.84	-1335.47	 3059.39
     28.8810	 3531.00	 3592.17	-1343.80	 3057.42
     28.9070	 3548.00	 3596.58	-1331.21	 3055.37
     28.9330	 3534.00	 3600.37	-1349.01	 3052.37
     28.9590	 3633.00	 3604.51	-1254.14	 3049.37
     28.9850	 3614.00	 3609.01	-1277.64	 3046.37
     29.0110	 3620.00	 3613.96	-1276.59	 3043.37
     29.0370	 3573.00	 3619.25	-1328.89	 3040.37
     29.0630	 3619.00	 3624.98	-1288.61	 3037.37
     29.0890	 3632.00	 3631.17	-1281.81	 3034.37
     29.1150	 3570.00	 3637.86	-1350.49	 3031.37
     29.1410	 3499.00	 3645.06	-1428.69	 3028.37
     29.1670	 3536.00	 3652.81	-1399.44	 3025.37
     29.1930	 3552.00	 3661.15	-1391.78	 3022.37
     29.2190	 3581.00	 3670.10	-1371.74	 3019.38
     29.2450	 3655.00	 3679.72	-1307.35	 3016.38
     29.2710	 3615.00	 3690.02	-1357.65	 3013.38
     29.2970	 3625.00	 3701.06	-1358.69	 3010.38
     29.3230	 3665.00	 3712.87	-1330.50	 3007.38
     29.3490	 3682.00	 3725.48	-1326.12	 3004.38
     29.3750	 3668.00	 3738.95	-1353.58	 3001.38
     29.4010	 3707.00	 3753.31	-1328.94	 2998.38
     29.4270	 3713.00	 3768.59	-1338.23	 2995.38
     29.4530	 3757.00	 3784.84	-1310.47	 2992.38
     29.4790	 3764.00	 3802.08	-1320.71	 2989.38
     29.5050	 3818.00	 3820.33	-1284.96	 2986.38
     29.5310	 3780.00	 3839.62	-1342.25	 2983.38
     29.5570	 3754.00	 3859.95	-1388.58	 2980.38
     29.5830	 3747.00	 3881.32	-1416.95	 2977.38
     29.6090	 3888.00	 3903.70	-1298.33	 2974.38
     29.6350	 3872.00	 3927.06	-1337.69	 2971.39
     29.6610	 3863.00	 3951.34	-1370.97	 2968.39
     29.6870	 3877.00	 3976.44	-1382.07	 2965.39
     29.7130	 3908.00	 4002.25	-1376.88	 2962.39
     29.7390	 4036.00	 4028.61	-1275.24	 2959.39
     29.7650	 4023.00	 4055.33	-1314.96	 2956.39
     29.7910	 4021.00	 4082.18	-1343.81	 2953.39
     29.8170	 4088.00	 4108.88	-1303.51	 2950.39
     29.8430	 4075.00	 4135.10	-1342.74	 2947.39
     29.8690	 4021.00	 4160.51	-1422.14	 2944.39
     29.8950	 4023.00	 4184.70	-1444.33	 2941.39
     29.9210	 4074.00	 4207.25	-1415.89	 2938.39
     29.9470	 4123.00	 4227.75	-1387.38	 2935.39
     29.9730	 4176.00	 4245.74	-1352.38	 2932.39
     29.9990	 4210.00	 4260.84	-1333.47	 2929.39
     30.0250	 4204.00	 4272.65	-1351.28	 2926.40
     30.0510	 4190.00	 4280.85	-1373.48	 2923.40
     30.0770	 4204.00	 4285.20	-1363.83	 2920.40
     30.1030	 4188.00	 4285.53	-1380.16	 2917.40
     30.1290	 4191.00	 4281.76	-1373.39	 2914.40
     30.1550	 4243.00	 4273.93	-1313.56	 2911.40
     30.1810	 4224.00	 4262.15	-1320.78	 2908.40
     30.2070	 4208.00	 4246.64	-1321.27	 2905.40
     30.2330	 4190.00	 4227.69	-1320.32	 2902.40
     30.2590	 4083.00	 4205.65	-1405.29	 2899.40
     30.2850	 4073.00	 4180.93	-1390.56	 2896.40
     30.3110	 4164.00	 4153.93	-1272.56	 2893.40
     30.3370	 4156.00	 4125.09	-1251.73	 2890.40
     30.3630	 4150.00	 4094.84	-1227.47	 2887.40
     30.3890	 4157.00	 4063.58	-1189.21	 2884.41
     30.4150	 4008.00	 4031.68	-1306.31	 2881.41
     30.4410	 3970.00	 3999.48	-1312.11	 2878.41
     30.4670	 3865.00	 3967.27	-1384.90	 2875.41
     30.4930	 3971.00	 3935.30	-1246.94	 2872.41
     30.5190	 3971.00	 3903.80	-1215.43	 2869.41
     30.5450	 3907.00	 3872.94	-1248.57	 2866.41
     30.5710	 3834.00	 3842.84	-1291.47	 2863.41
     30.5970	 3878.00	 3813.62	-1218.25	 2860.41
     30.6230	 3830.00	 3785.34	-1237.97	 2857.41
     30.6490	 3727.00	 3758.07	-1313.70	 2854.41
     30.6750	 3700.00	 3731.82	-1314.45	 2851.41
     30.7010	 3720.00	 3706.62	-1269.25	 2848.41
     30.7270	 3709.00	 3682.46	-1256.09	 2845.41
     30.7530	 3663.00	 3659.33	-1278.96	 2842.41
     30.7790	 3663.00	 3637.20	-1256.83	 2839.41
     30.8050	 3670.00	 3616.06	-1228.69	 2836.42
     30.8310	 3726.00	 3595.86	-1152.49	 2833.42
     30.8570	 3567.00	 3576.58	-1292.21	 2830.42
     30.8830	 3533.00	 3558.17	-1307.80	 2827.42
     30.9090	 3536.00	 3540.59	-1287.23	 2824.42
     30.9350	 3509.00	 3523.82	-1297.45	 2821.42
     30.9610	 3449.00	 3507.79	-1341.43	 2818.42
     30.9870	 3475.00	 3492.49	-1300.12	 2815.42
     31.0130	 3481.00	 3477.87	-1279.50	 2812.42
     31.0390	 3426.00	 3463.89	-1320.52	 2809.42
     31.0650	 3525.00	 3450.51	-1208.14	 2806.42
     31.0910	 3443.00	 3437.72	-1277.35	 2803.42
     31.1170	 3368.00	 3425.46	-1340.09	 2800.42
     31.1430	 3405.00	 3413.72	-1291.35	 2797.42
     31.1690	 3445.00	 3402.46	-1240.09	 2794.43
     31.1950	 3339.00	 3391.65	-1335.28	 2791.43
     31.2210	 3430.00	 3381.28	-1233.91	 2788.43
     31.2470	 3389.00	 3371.31	-1264.94	 2785.43
     31.2730	 3336.00	 3361.72	-1308.35	 2782.43
     31.2990	 3365.00	 3352.50	-1270.13	 2779.43
     31.3250	 3241.00	 3343.61	-1385.24	 2776.43
     31.3510	 3379.00	 3335.05	-1238.68	 2773.43
     31.3770	 3306.00	 3326.79	-1303.43	 2770.43
     31.4030	 3264.00	 3318.83	-1337.46	 2767.43
     31.4290	 3320.00	 3311.13	-1273.76	 2764.43
     31.4550	 3294.00	 3303.69	-1292.32	 2761.43
     31.4810	 3312.00	 3296.50	-1267.13	 2758.43
     31.5070	 3245.00	 3289.54	-1327.17	 2755.43
     31.5330	 3287.00	 3282.79	-1278.42	 2752.43
     31.5590	 3255.00	 3276.26	-1303.89	 2749.44
     31.5850	 3212.00	 3269.93	-1340.56	 2746.44
     31.6110	 3225.00	 3263.78	-1321.41	 2743.44
     31.6370	 3282.00	 3257.81	-1258.45	 2740.44
     31.6630	 3248.00	 3252.02	-1286.65	 2737.44
     31.6890	 3283.00	 3246.39	-1246.02	 2734.44
     31.7150	 3334.00	 3240.91	-1189.55	 2731.44
     31.7410	 3291.00	 3235.59	-1227.22	 2728.44
     31.7670	 3216.00	 3230.41	-1297.04	 2725.44
     31.7930	 3196.00	 3225.36	-1311.99	 2722.44
     31.8190	 3214.00	 3220.44	-1289.08	 2719.44
     31.8450	 3221.00	 3215.66	-1277.29	 2716.44
     31.8710	 3210.00	 3210.99	-1283.62	 2713.44
     31.8970	 3344.00	 3206.44	-1145.07	 2710.44
     31.9230	 3197.00	 3202.00	-1287.63	 2707.44
     31.9490	 3173.00	 3197.67	-1307.30	 2704.45
     31.9750	 3237.00	 3193.44	-1239.08	 2701.45
     32.0010	 3213.00	 3189.32	-1258.95	 2698.45
     32.0270	 3280.00	 3185.51	-1188.14	 2695.45
     32.0530	 3221.00	 3181.58	-1243.22	 2692.45
     32.0790	 3127.00	 3177.75	-1333.38	 2689.45
     32.1050	 3231.00	 3174.00	-1225.63	 2686.45
     32.1310	 3262.00	 3170.34	-1190.97	 2683.45
     32.1570	 3258.00	 3166.88	-1191.51	 2680.45
     32.1830	 3201.00	 3163.39	-1245.02	 2677.45
     32.2090	 3183.00	 3159.98	-1259.61	 2674.45
     32.2350	 3254.00	 3156.66	-1185.29	 2671.45
     32.2610	 3302.00	 3153.41	-1134.04	 2668.45
     32.2870	 3262.00	 3150.24	-1170.87	 2665.45
     32.3130	 3217.00	 3147.15	-1212.78	 2662.45
     32.3390	 3190.00	 3144.13	-1236.77	 2659.46
     32.3650	 3225.00	 3141.19	-1198.82	 2656.46
     32.3910	 3232.00	 3138.33	-1188.96	 2653.46
     32.4170	 3182.00	 3135.53	-1236.17	 2650.46
     32.4430	 3177.00	 3132.81	-1238.44	 2647.46
     32.4690	 3195.00	 3130.17	-1217.80	 2644.46
     32.4950	 3213.00	 3127.59	-1197.22	 2641.46
     32.5210	 3161.00	 3125.09	-1246.72	 2638.46
     32.5470	 3094.00	 3122.66	-1311.29	 2635.46
     32.5730	 3138.00	 3120.30	-1264.93	 2632.46
     32.5990	 3215.00	 3118.02	-1185.65	 2629.46
     32.6250	 3221.00	 3115.80	-1177.43	 2626.46
     32.6510	 3191.00	 3113.66	-1205.30	 2623.46
     32.6770	 3154.00	 3111.60	-1240.23	 2620.46
     32.7030	 3127.00	 3109.61	-1265.24	 2617.46
     32.7290	 3151.00	 3107.70	-1239.33	 2614.47
     32.7550	 3147.00	 3105.86	-1241.49	 2611.47
     32.7810	 3151.00	 3104.10	-1235.73	 2608.47
     32.8070	 3167.00	 3102.42	-1218.05	 2605.47
     32.8330	 3162.00	 3100.82	-1221.45	 2602.47
     32.8590	 3103.00	 3099.30	-1278.93	 2599.47
     32.8850	 3077.00	 3097.86	-1303.49	 2596.47
     32.9110	 3132.00	 3096.51	-1247.14	 2593.47
     32.9370	 3142.00	 3095.24	-1235.88	 2590.47
     32.9630	 3135.00	 3094.07	-1241.70	 2587.47
     32.9890	 3202.00	 3092.98	-1173.61	 2584.47
     33.0150	 3208.00	 3091.99	-1166.62	 2581.47
     33.0410	 3056.00	 3091.09	-1317.72	 2578.47
     33.0670	 3004.00	 3090.29	-1368.92	 2575.47
     33.0930	 3073.00	 3089.59	-1299.22	 2572.47
     33.1190	 3125.00	 3088.99	-1246.62	 2569.48
     33.1450	 3083.00	 3088.50	-1288.13	 2566.48
     33.1710	 3108.00	 3088.00	-1262.63	 2563.36
     33.1970	 3125.00	 3087.23	-1244.86	 2559.85
     33.2230	 3218.00	 3086.58	-1151.21	 2556.35
     33.2490	 3155.00	 3086.05	-1213.68	 2552.84
     33.2750	 3126.00	 3085.64	-1242.27	 2549.34
     33.3010	 3061.00	 3085.36	-1306.99	 2545.84
     33.3270	 3031.00	 3085.22	-1336.85	 2542.33
     33.3530	 3030.00	 3085.22	-1337.85	 2538.83
     33.3790	 3081.00	 3085.37	-1287.00	 2535.32
     33.4050	 3144.00	 3085.66	-1224.29	 2531.82
     33.4310	 3146.00	 3086.11	-1222.75	 2528.32
     33.4570	 3083.00	 3086.73	-1286.36	 2524.81
     33.4830	 3193.00	 3087.52	-1177.15	 2521.31
     33.5090	 3087.00	 3088.48	-1284.11	 2517.80
     33.5350	 3111.00	 3089.63	-1261.26	 2514.30
     33.5610	 3107.00	 3090.97	-1266.61	 2510.80
     33.5870	 3133.00	 3092.52	-1242.15	 2507.29
     33.6130	 3151.00	 3094.27	-1225.91	 2503.79
     33.6390	 3092.00	 3096.25	-1286.88	 2500.28
     33.6650	 3158.00	 3098.46	-1223.09	 2496.78
     33.6910	 3104.00	 3100.91	-1279.54	 2493.28
     33.7170	 3107.00	 3103.61	-1279.24	 2489.77
     33.7430	 3132.00	 3106.58	-1257.21	 2486.27
     33.7690	 3097.00	 3109.83	-1295.46	 2482.76
     33.7950	 3185.00	 3113.37	-1211.00	 2479.26
     33.8210	 3226.00	 3117.22	-1173.85	 2475.76
     33.8470	 3160.00	 3121.39	-1244.03	 2472.25
     33.8730	 3068.00	 3125.91	-1340.54	 2468.75
     33.8990	 3037.00	 3130.78	-1376.41	 2465.24
     33.9250	 3150.00	 3136.03	-1268.66	 2461.74
     33.9510	 3132.00	 3141.67	-1292.31	 2458.24
     33.9770	 3188.00	 3147.74	-1242.37	 2454.73
     34.0030	 3143.00	 3154.25	-1293.88	 2451.23
     34.0290	 3116.00	 3161.22	-1327.86	 2447.72
     34.0550	 3227.00	 3168.69	-1224.32	 2444.22
     34.0810	 3077.00	 3176.68	-1382.31	 2440.71
     34.1070	 3242.00	 3185.22	-1225.86	 2437.21
     34.1330	 3226.00	 3194.35	-1250.98	 2433.71
     34.1590	 3226.00	 3204.09	-1260.72	 2430.20
     34.1850	 3204.00	 3214.48	-1293.11	 2426.70
     34.2110	 3161.00	 3225.56	-1347.20	 2423.19
     34.2370	 3323.00	 3237.38	-1197.01	 2419.69
     34.2630	 3275.00	 3249.97	-1257.60	 2416.19
     34.2890	 3328.00	 3263.39	-1218.02	 2412.68
     34.3150	 3256.00	 3277.68	-1304.31	 2409.18
     34.3410	 3273.00	 3292.89	-1302.52	 2405.67
     34.3670	 3329.00	 3309.08	-1262.72	 2402.17
     34.3930	 3229.00	 3326.32	-1379.95	 2398.67
     34.4190	 3276.00	 3344.66	-1351.29	 2395.16
     34.4450	 3321.00	 3364.16	-1325.80	 2391.66
     34.4710	 3426.00	 3384.92	-1241.55	 2388.15
     34.4970	 3377.00	 3406.98	-1312.61	 2384.65
     34.5230	 3377.00	 3430.44	-1336.07	 2381.15
     34.5490	 3399.00	 3455.37	-1339.00	 2377.64
     34.5750	 3407.00	 3481.86	-1357.50	 2374.14
     34.6010	 3413.00	 3510.01	-1379.64	 2370.63
     34.6270	 3436.00	 3539.89	-1386.52	 2367.13
     34.6530	 3530.00	 3571.61	-1324.24	 2363.63
     34.6790	 3525.00	 3605.25	-1362.88	 2360.12
     34.7050	 3548.00	 3640.92	-1375.56	 2356.62
     34.7310	 3577.00	 3678.71	-1384.34	 2353.11
     34.7570	 3670.00	 3718.71	-1331.34	 2349.61
     34.7830	 3724.00	 3761.01	-1319.64	 2346.11
     34.8090	 3762.00	 3805.69	-1326.32	 2342.60
     34.8350	 3785.00	 3852.80	-1350.43	 2339.10
     34.8610	 3857.00	 3902.42	-1328.05	 2335.59
     34.8870	 3944.00	 3954.56	-1293.19	 2332.09
     34.9130	 4037.00	 4009.24	-1254.88	 2328.59
     34.9390	 4129.00	 4066.43	-1220.06	 2325.08
     34.9650	 4234.00	 4126.07	-1174.70	 2321.58
     34.9910	 4261.00	 4188.04	-1209.67	 2318.07
     35.0170	 4281.00	 4252.17	-1253.80	 2314.57
     35.0430	 4357.00	 4318.22	-1243.85	 2311.07
     35.0690	 4463.00	 4385.89	-1205.53	 2307.56
     35.0950	 4434.00	 4454.78	-1303.41	 2304.06
     35.1210	 4513.00	 4524.40	-1294.03	 2300.55
     35.1470	 4596.00	 4594.15	-1280.78	 2297.05
     35.1730	 4623.00	 4663.37	-1323.00	 2293.55
     35.1990	 4784.00	 4731.26	-1229.90	 2290.04
     35.2250	 4767.00	 4796.96	-1312.59	 2286.54
     35.2510	 4793.00	 4859.50	-1349.14	 2283.03
     35.2770	 4966.00	 4917.91	-1234.54	 2279.53
     35.3030	 4935.00	 4971.14	-1318.77	 2276.03
     35.3290	 4814.00	 5018.18	-1486.81	 2272.52
     35.3550	 4873.00	 5058.06	-1467.69	 2269.02
     35.3810	 5033.00	 5089.89	-1339.52	 2265.51
     35.4070	 5036.00	 5112.93	-1359.57	 2262.01
     35.4330	 5003.00	 5126.61	-1406.24	 2258.50
     35.4590	 5074.00	 5130.53	-1339.16	 2255.00
     35.4850	 5072.00	 5124.54	-1335.17	 2251.50
     35.5110	 5100.00	 5108.70	-1291.33	 2247.99
     35.5370	 5018.00	 5083.32	-1347.96	 2244.49
     35.5630	 5003.00	 5048.89	-1328.52	 2240.99
     35.5890	 4933.00	 5006.10	-1355.73	 2237.48
     35.6150	 4785.00	 4955.76	-1453.39	 2233.98
     35.6410	 4720.00	 4898.83	-1461.46	 2230.47
     35.6670	 4697.00	 4836.28	-1421.91	 2226.97
     35.6930	 4705.00	 4769.15	-1346.78	 2223.46
     35.7190	 4724.00	 4698.45	-1257.08	 2219.96
     35.7450	 4565.00	 4625.15	-1342.78	 2216.46
     35.7710	 4547.00	 4550.14	-1285.77	 2212.95
     35.7970	 4482.00	 4474.25	-1274.89	 2209.45
     35.8230	 4364.00	 4398.21	-1316.85	 2205.94
     35.8490	 4463.00	 4322.67	-1142.30	 2202.44
     35.8750	 4351.00	 4248.11	-1179.75	 2198.94
     35.9010	 4166.00	 4175.02	-1291.65	 2195.43
     35.9270	 4126.00	 4103.72	-1260.35	 2191.93
     35.9530	 4036.00	 4034.51	-1281.14	 2188.42
     35.9790	 3991.00	 3967.57	-1259.20	 2184.92
     36.0050	 3883.00	 3903.05	-1302.68	 2181.42
     36.0310	 3825.00	 3841.04	-1298.67	 2177.91
     36.0570	 3731.00	 3781.60	-1333.24	 2174.41
     36.0830	 3754.00	 3724.73	-1253.36	 2170.90
     36.1090	 3656.00	 3670.40	-1297.03	 2167.40
     36.1350	 3602.00	 3618.59	-1299.22	 2163.90
     36.1610	 3467.00	 3569.25	-1384.88	 2160.39
     36.1870	 3359.00	 3522.28	-1445.91	 2156.89
     36.2130	 3390.00	 3477.62	-1370.26	 2153.38
     36.2390	 3300.00	 3435.19	-1417.82	 2149.88
     36.2650	 3362.00	 3394.90	-1315.53	 2146.38
     36.2910	 3302.00	 3356.64	-1337.27	 2142.87
     36.3170	 3190.00	 3320.33	-1412.96	 2139.37
     36.3430	 3098.00	 3285.88	-1470.51	 2135.86
     36.3690	 3179.00	 3253.21	-1356.85	 2132.36
     36.3950	 3080.00	 3222.23	-1424.86	 2128.86
     36.4210	 3028.00	 3192.84	-1447.47	 2125.35
     36.4470	 2963.00	 3164.98	-1484.61	 2121.85
     36.4730	 2971.00	 3138.57	-1450.20	 2118.34
     36.4990	 2964.00	 3113.52	-1432.15	 2114.84
     36.5250	 3006.00	 3089.77	-1366.41	 2111.34
     36.5510	 2850.00	 3067.26	-1499.89	 2107.83
     36.5770	 2932.00	 3045.91	-1396.54	 2104.33
     36.6030	 2961.00	 3025.66	-1347.29	 2100.82
     36.6290	 2868.00	 3006.45	-1421.08	 2097.32
     36.6550	 2977.00	 2988.22	-1293.85	 2093.82
     36.6810	 2867.00	 2970.90	-1386.53	 2090.31
     36.7070	 2919.00	 2954.43	-1318.06	 2086.81
     36.7330	 2871.00	 2938.75	-1350.38	 2083.30
     36.7590	 2940.00	 2923.81	-1266.44	 2079.80
     36.7850	 2882.00	 2909.52	-1310.15	 2076.30
     36.8110	 2923.00	 2895.84	-1255.47	 2072.79
     36.8370	 2930.00	 2882.68	-1235.32	 2069.29
     36.8630	 2877.00	 2870.00	-1275.63	 2065.78
     36.8890	 2905.00	 2857.70	-1235.33	 2062.28
     36.9150	 3023.00	 2845.73	-1105.36	 2058.78
     36.9410	 2993.00	 2834.41	-1124.04	 2055.27
     36.9670	 2933.00	 2822.89	-1172.52	 2051.77
     36.9930	 2845.00	 2811.50	-1249.13	 2048.26
     37.0190	 2896.00	 2800.19	-1186.82	 2044.76
     37.0450	 2869.00	 2788.90	-1202.53	 2041.25
     37.0710	 2911.00	 2777.59	-1149.22	 2037.75
     37.0970	 2897.00	 2766.43	-1152.06	 2034.25
     37.1230	 2850.00	 2755.00	-1187.64	 2030.74
     37.1490	 2768.00	 2743.50	-1258.13	 2027.24
     37.1750	 2809.00	 2731.91	-1205.54	 2023.73
     37.2010	 2840.00	 2720.24	-1162.87	 2020.23
     37.2270	 2841.00	 2708.50	-1150.14	 2016.73
     37.2530	 2757.00	 2696.73	-1222.36	 2013.22
     37.2790	 2698.00	 2684.94	-1269.57	 2009.72
     37.3050	 2661.00	 2673.15	-1294.78	 2006.21
     37.3310	 2739.00	 2661.41	-1205.04	 2002.71
     37.3570	 2734.00	 2649.74	-1198.37	 1999.21
     37.3830	 2701.00	 2638.16	-1219.80	 1995.70
     37.4090	 2666.00	 2626.71	-1243.35	 1992.20
     37.4350	 2606.00	 2615.41	-1292.04	 1988.69
     37.4610	 2616.00	 2604.28	-1270.91	 1985.19
     37.4870	 2622.00	 2593.33	-1253.96	 1981.69
     37.5130	 2589.00	 2582.58	-1276.21	 1978.18
     37.5390	 2589.00	 2572.04	-1265.67	 1974.68
     37.5650	 2560.00	 2561.72	-1284.35	 1971.17
     37.5910	 2498.00	 2551.61	-1336.25	 1967.67
     37.6170	 2518.00	 2541.73	-1306.36	 1964.17
     37.6430	 2525.00	 2532.07	-1289.70	 1960.66
     37.6690	 2502.00	 2522.63	-1303.27	 1957.16
     37.6950	 2465.00	 2513.41	-1331.04	 1953.65
     37.7210	 2431.00	 2504.40	-1356.04	 1950.15
     37.7470	 2427.00	 2495.60	-1351.23	 1946.65
     37.7730	 2416.00	 2487.00	-1353.64	 1943.14
     37.7990	 2426.00	 2478.60	-1335.23	 1939.64
     37.8250	 2473.00	 2470.38	-1280.01	 1936.13
     37.8510	 2455.00	 2462.34	-1289.98	 1932.63
     37.8770	 2372.00	 2454.48	-1365.12	 1929.13
     37.9030	 2320.00	 2446.79	-1409.42	 1925.62
     37.9290	 2350.00	 2439.26	-1371.89	 1922.12
     37.9550	 2390.00	 2431.87	-1324.51	 1918.61
     37.9810	 2339.00	 2424.64	-1368.27	 1915.11
     38.0070	 2349.00	 2417.55	-1351.18	 1911.61
     38.0330	 2344.00	 2410.59	-1349.22	 1908.10
     38.0590	 2253.00	 2403.76	-1433.39	 1904.60
     38.0850	 2243.00	 2397.05	-1436.68	 1901.09
     38.1110	 2294.00	 2390.46	-1379.09	 1897.59
     38.1370	 2335.00	 2383.98	-1331.61	 1894.09
     38.1630	 2332.00	 2377.61	-1328.24	 1890.58
     38.1890	 2285.00	 2371.34	-1368.97	 1887.08
     38.2150	 2296.00	 2365.17	-1351.80	 1883.57
     38.2410	 2305.00	 2359.09	-1336.72	 1880.07
     38.2670	 2288.00	 2353.10	-1347.73	 1876.57
     38.2930	 2304.00	 2347.46	-1326.09	 1873.32
     38.3190	 2336.00	 2343.90	-1290.53	 1872.08
     38.3450	 2319.00	 2340.42	-1304.05	 1870.83
     38.3710	 2304.00	 2337.01	-1315.64	 1869.59
     38.3970	 2315.00	 2333.68	-1301.31	 1868.35
     38.4230	 2321.00	 2330.41	-1292.04	 1867.10
     38.4490	 2306.00	 2327.21	-1303.84	 1865.86
     38.4750	 2228.00	 2324.08	-1378.71	 1864.61
     38.5010	 2284.00	 2321.01	-1319.64	 1863.37
     38.5270	 2271.00	 2317.99	-1329.62	 1862.13
     38.5530	 2368.00	 2315.04	-1229.67	 1860.88
     38.5790	 2294.00	 2312.14	-1300.77	 1859.64
     38.6050	 2238.00	 2309.29	-1353.92	 1858.40
     38.6310	 2225.00	 2306.49	-1364.12	 1857.15
     38.6570	 2231.00	 2303.74	-1355.37	 1855.91
     38.6830	 2276.00	 2301.04	-1307.67	 1854.66
     38.7090	 2288.00	 2298.39	-1293.02	 1853.42
     38.7350	 2189.00	 2295.78	-1389.41	 1852.18
     38.7610	 2222.00	 2293.21	-1353.84	 1850.93
     38.7870	 2333.00	 2290.68	-1240.31	 1849.69
     38.8130	 2270.00	 2288.20	-1300.83	 1848.44
     38.8390	 2323.00	 2285.75	-1245.38	 1847.20
     38.8650	 2220.00	 2283.34	-1345.97	 1845.96
     38.8910	 2290.00	 2280.97	-1273.60	 1844.71
     38.9170	 2253.00	 2278.63	-1308.26	 1843.47
     38.9430	 2236.00	 2276.33	-1322.96	 1842.22
     38.9690	 2145.00	 2274.06	-1411.69	 1840.98
     38.9950	 2281.00	 2271.82	-1273.45	 1839.74
     39.0210	 2265.00	 2269.62	-1287.25	 1838.49
     39.0470	 2255.00	 2267.44	-1295.07	 1837.25
     39.0730	 2247.00	 2265.30	-1300.93	 1836.00
     39.0990	 2271.00	 2263.18	-1274.81	 1834.76
     39.1250	 2299.00	 2261.10	-1244.73	 1833.52
     39.1510	 2308.00	 2259.04	-1233.67	 1832.27
     39.1770	 2230.00	 2257.01	-1309.64	 1831.03
     39.2030	 2193.00	 2255.00	-1344.63	 1829.78
     39.2290	 2206.00	 2253.02	-1329.66	 1828.54
     39.2550	 2191.00	 2251.07	-1342.70	 1827.30
     39.2810	 2324.00	 2249.14	-1207.78	 1826.05
     39.3070	 2201.00	 2247.24	-1328.87	 1824.81
     39.3330	 2198.00	 2245.36	-1329.99	 1823.57
     39.3590	 2260.00	 2243.51	-1266.14	 1822.32
     39.3850	 2261.00	 2241.68	-1263.31	 1821.08
     39.4110	 2265.00	 2239.87	-1257.50	 1819.83
     39.4370	 2248.00	 2238.08	-1272.71	 1818.59
     39.4630	 2254.00	 2236.32	-1264.95	 1817.35
     39.4890	 2268.00	 2234.57	-1249.21	 1816.10
     39.5150	 2253.00	 2232.85	-1262.49	 1814.86
     39.5410	 2204.00	 2231.15	-1309.79	 1813.61
     39.5670	 2222.00	 2229.48	-1290.11	 1812.37
     39.5930	 2209.00	 2227.82	-1301.45	 1811.13
     39.6190	 2189.00	 2226.18	-1319.81	 1809.88
     39.6450	 2180.00	 2224.58	-1327.21	 1808.64
     39.6710	 2156.00	 2222.99	-1349.62	 1807.39
     39.6970	 2148.00	 2221.41	-1356.04	 1806.15
     39.7230	 2197.00	 2219.86	-1305.49	 1804.91
     39.7490	 2207.00	 2218.32	-1293.95	 1803.66
     39.7750	 2190.00	 2216.80	-1309.43	 1802.42
     39.8010	 2162.00	 2215.31	-1335.95	 1801.17
     39.8270	 2218.00	 2213.84	-1278.47	 1799.93
     39.8530	 2226.00	 2212.38	-1269.01	 1798.69
     39.8790	 2160.00	 2210.94	-1333.57	 1797.44
     39.9050	 2158.00	 2209.53	-1334.16	 1796.20
     39.9310	 2214.00	 2208.13	-1276.76	 1794.95
     39.9570	 2219.00	 2206.75	-1270.38	 1793.71
     39.9830	 2246.00	 2205.39	-1242.02	 1792.47
     40.0090	 2190.00	 2204.05	-1296.68	 1791.22
     40.0350	 2179.00	 2202.73	-1306.36	 1789.98
     40.0610	 2208.00	 2201.43	-1276.06	 1788.74
     40.0870	 2193.00	 2200.15	-1289.78	 1787.49
     40.1130	 2153.00	 2198.89	-1328.53	 1786.25
     40.1390	 2232.00	 2197.66	-1248.29	 1785.00
     40.1650	 2257.00	 2196.44	-1222.07	 1783.76
     40.1910	 2246.00	 2195.24	-1231.87	 1782.52
     40.2170	 2219.00	 2194.07	-1257.70	 1781.27
     40.2430	 2137.00	 2192.91	-1338.54	 1780.03
     40.2690	 2192.00	 2191.78	-1282.41	 1778.78
     40.2950	 2186.00	 2190.67	-1287.30	 1777.54
     40.3210	 2165.00	 2189.58	-1307.21	 1776.30
     40.3470	 2214.00	 2188.52	-1257.15	 1775.05
     40.3730	 2236.00	 2187.48	-1234.11	 1773.81
     40.3990	 2234.00	 2186.46	-1235.09	 1772.56
     40.4250	 2203.00	 2185.46	-1265.10	 1771.32
     40.4510	 2192.00	 2184.23	-1274.86	 1770.08
     40.4770	 2228.00	 2183.29	-1237.92	 1768.83
     40.5030	 2217.00	 2182.24	-1247.87	 1767.59
     40.5290	 2172.00	 2181.36	-1291.99	 1766.34
     40.5550	 2209.00	 2180.49	-1254.12	 1765.10
     40.5810	 2204.00	 2179.66	-1258.29	 1763.86
     40.6070	 2194.00	 2178.85	-1267.48	 1762.61
     40.6330	 2230.00	 2178.07	-1230.70	 1761.37
     40.6590	 2236.00	 2177.32	-1223.95	 1760.12
     40.6850	 2184.00	 2176.60	-1275.23	 1758.88
     40.7110	 2188.00	 2175.91	-1270.54	 1757.64
     40.7370	 2204.00	 2175.26	-1253.89	 1756.39
     40.7630	 2222.00	 2174.63	-1235.27	 1755.15
     40.7890	 2203.00	 2174.05	-1253.68	 1753.91
     40.8150	 2197.00	 2173.72	-1259.35	 1752.89
     40.8410	 2232.00	 2173.49	-1224.12	 1751.92
     40.8670	 2256.00	 2173.29	-1199.92	 1750.96
     40.8930	 2229.00	 2173.13	-1226.76	 1750.00
     40.9190	 2178.00	 2173.01	-1277.64	 1749.03
     40.9450	 2215.00	 2172.94	-1240.57	 1748.07
     40.9710	 2251.00	 2172.91	-1204.54	 1747.11
     40.9970	 2289.00	 2172.92	-1166.55	 1746.14
     41.0230	 2310.00	 2172.98	-1145.61	 1745.18
     41.0490	 2266.00	 2173.09	-1189.72	 1744.21
     41.0750	 2190.00	 2173.25	-1265.88	 1743.25
     41.1010	 2304.00	 2173.46	-1152.10	 1742.29
     41.1270	 2178.00	 2173.73	-1278.36	 1741.32
     41.1530	 2204.00	 2174.06	-1252.69	 1740.36
     41.1790	 2221.00	 2174.44	-1236.08	 1739.39
     41.2050	 2202.00	 2174.89	-1255.52	 1738.43
     41.2310	 2256.00	 2175.41	-1202.04	 1737.47
     41.2570	 2220.00	 2175.99	-1238.62	 1736.50
     41.2830	 2151.00	 2176.64	-1308.27	 1735.54
     41.3090	 2184.00	 2177.37	-1276.00	 1734.57
     41.3350	 2232.00	 2178.18	-1228.81	 1733.61
     41.3610	 2228.00	 2179.06	-1233.69	 1732.65
     41.3870	 2254.00	 2180.04	-1208.67	 1731.68
     41.4130	 2196.00	 2181.10	-1267.73	 1730.72
     41.4390	 2151.00	 2182.26	-1313.89	 1729.76
     41.4650	 2228.00	 2183.51	-1238.14	 1728.79
     41.4910	 2296.00	 2184.87	-1171.50	 1727.83
     41.5170	 2270.00	 2186.34	-1198.97	 1726.86
     41.5430	 2257.00	 2187.92	-1213.55	 1725.90
     41.5690	 2212.00	 2189.63	-1260.26	 1724.94
     41.5950	 2192.00	 2191.46	-1282.09	 1723.97
     41.6210	 2268.00	 2193.43	-1208.06	 1723.01
     41.6470	 2226.00	 2195.53	-1252.16	 1722.04
     41.6730	 2299.00	 2197.79	-1181.42	 1721.08
     41.6990	 2151.00	 2200.20	-1331.83	 1720.12
     41.7250	 2306.00	 2202.78	-1179.41	 1719.15
     41.7510	 2209.00	 2205.54	-1279.17	 1718.19
     41.7770	 2252.00	 2208.48	-1239.11	 1717.23
     41.8030	 2217.00	 2211.61	-1277.24	 1716.26
     41.8290	 2157.00	 2214.95	-1340.59	 1715.30
     41.8550	 2277.00	 2218.52	-1224.15	 1714.33
     41.8810	 2195.00	 2222.31	-1309.94	 1713.37
     41.9070	 2238.00	 2226.35	-1270.98	 1712.41
     41.9330	 2213.00	 2230.65	-1300.28	 1711.44
     41.9590	 2137.00	 2235.22	-1380.85	 1710.48
     41.9850	 2169.00	 2240.09	-1353.72	 1709.51
     42.0110	 2257.00	 2245.26	-1270.89	 1708.55
     42.0370	 2204.00	 2250.76	-1329.39	 1707.59
     42.0630	 2203.00	 2256.61	-1336.24	 1706.62
     42.0890	 2231.00	 2262.82	-1314.45	 1705.66
     42.1150	 2258.00	 2269.42	-1294.05	 1704.69
     42.1410	 2183.00	 2276.43	-1376.06	 1703.73
     42.1670	 2166.00	 2283.88	-1400.51	 1702.77
     42.1930	 2177.00	 2291.78	-1397.41	 1701.80
     42.2190	 2181.00	 2300.16	-1401.79	 1700.84
     42.2450	 2207.00	 2309.05	-1384.68	 1699.88
     42.2710	 2264.00	 2318.48	-1337.11	 1698.91
     42.2970	 2183.00	 2328.47	-1428.11	 1697.95
     42.3230	 2256.00	 2339.06	-1365.69	 1696.98
     42.3490	 2249.00	 2350.25	-1383.88	 1696.02
     42.3750	 2248.00	 2362.09	-1396.72	 1695.06
     42.4010	 2280.00	 2374.60	-1377.23	 1694.09
     42.4270	 2352.00	 2387.79	-1318.43	 1693.13
     42.4530	 2355.00	 2401.70	-1329.33	 1692.16
     42.4790	 2345.00	 2416.33	-1353.96	 1691.20
     42.5050	 2379.00	 2431.69	-1335.32	 1690.24
     42.5310	 2437.00	 2447.79	-1293.42	 1689.27
     42.5570	 2428.00	 2464.61	-1319.24	 1688.31
     42.5830	 2439.00	 2482.15	-1325.78	 1687.35
     42.6090	 2503.00	 2500.38	-1280.01	 1686.38
     42.6350	 2529.00	 2519.24	-1272.87	 1685.42
     42.6610	 2590.00	 2538.68	-1231.31	 1684.45
     42.6870	 2620.00	 2558.61	-1221.25	 1683.49
     42.7130	 2635.00	 2578.94	-1226.57	 1682.53
     42.7390	 2668.00	 2599.51	-1214.14	 1681.56
     42.7650	 2757.00	 2620.19	-1145.82	 1680.60
     42.7910	 2744.00	 2640.78	-1179.41	 1679.63
     42.8170	 2760.00	 2661.08	-1183.71	 1678.67
     42.8430	 2782.00	 2680.85	-1181.48	 1677.71
     42.8690	 2750.00	 2699.82	-1232.46	 1676.74
     42.8950	 2800.00	 2717.74	-1200.37	 1675.78
     42.9210	 2845.00	 2734.30	-1171.93	 1674.81
     42.9470	 2825.00	 2749.22	-1206.85	 1673.85
     42.9730	 2860.00	 2762.22	-1184.86	 1672.89
     42.9990	 2947.00	 2773.05	-1108.68	 1671.92
     43.0250	 2898.00	 2781.46	-1166.09	 1670.96
     43.0510	 2852.00	 2787.27	-1217.90	 1670.00
     43.0770	 2924.00	 2790.34	-1148.97	 1669.03
     43.1030	 2912.00	 2790.57	-1161.20	 1668.07
     43.1290	 2863.00	 2787.95	-1207.58	 1667.10
     43.1550	 2832.00	 2782.51	-1233.15	 1666.14
     43.1810	 2802.00	 2774.36	-1254.99	 1665.18
     43.2070	 2811.00	 2763.62	-1235.26	 1664.21
     43.2330	 2836.00	 2750.52	-1197.15	 1663.25
     43.2590	 2791.00	 2735.27	-1226.90	 1662.28
     43.2850	 2747.00	 2718.15	-1253.78	 1661.32
     43.3110	 2707.00	 2699.43	-1275.06	 1660.36
     43.3370	 2628.00	 2679.39	-1334.02	 1659.39
     43.3630	 2704.00	 2658.33	-1236.96	 1658.43
     43.3890	 2694.00	 2636.49	-1225.12	 1657.47
     43.4150	 2658.00	 2614.15	-1238.78	 1656.50
     43.4410	 2555.00	 2591.53	-1319.16	 1655.54
     43.4670	 2514.00	 2568.84	-1337.47	 1654.57
     43.4930	 2506.00	 2546.26	-1322.89	 1653.61
     43.5190	 2510.00	 2523.94	-1296.57	 1652.65
     43.5450	 2477.00	 2502.00	-1307.63	 1651.68
     43.5710	 2445.00	 2480.56	-1318.20	 1650.72
     43.5970	 2427.00	 2459.70	-1315.33	 1649.75
     43.6230	 2410.00	 2439.47	-1312.10	 1648.79
     43.6490	 2368.00	 2419.92	-1334.55	 1647.83
     43.6750	 2271.00	 2401.08	-1412.72	 1646.86
     43.7010	 2232.00	 2382.97	-1433.60	 1645.90
     43.7270	 2261.00	 2365.59	-1387.22	 1644.93
     43.7530	 2209.00	 2348.94	-1422.57	 1643.97
     43.7790	 2261.00	 2333.01	-1354.64	 1643.01
     43.8050	 2266.00	 2317.78	-1334.41	 1642.04
     43.8310	 2285.00	 2303.24	-1300.87	 1641.08
     43.8570	 2200.00	 2289.37	-1372.00	 1640.12
     43.8830	 2132.00	 2276.13	-1426.76	 1639.15
     43.9090	 2180.00	 2263.51	-1366.14	 1638.19
     43.9350	 2123.00	 2251.47	-1411.10	 1637.22
     43.9610	 2183.00	 2239.99	-1339.63	 1636.26
     43.9870	 2115.00	 2229.09	-1396.72	 1635.30
     44.0130	 2079.00	 2218.65	-1422.29	 1634.33
     44.0390	 2109.00	 2208.70	-1382.33	 1633.37
     44.0650	 2066.00	 2199.20	-1415.83	 1632.40
     44.0910	 2068.00	 2190.13	-1404.77	 1631.44
     44.1170	 2068.00	 2181.48	-1396.11	 1630.48
     44.1430	 2046.00	 2173.22	-1409.85	 1629.51
     44.1690	 2000.00	 2165.31	-1447.95	 1628.55
     44.1950	 2077.00	 2157.75	-1363.38	 1627.59
     44.2210	 2036.00	 2150.52	-1397.15	 1626.62
     44.2470	 2069.00	 2143.59	-1357.22	 1625.66
     44.2730	 1996.00	 2136.95	-1423.58	 1624.69
     44.2990	 2077.00	 2130.58	-1336.22	 1623.73
     44.3250	 2022.00	 2124.48	-1385.11	 1622.77
     44.3510	 2052.00	 2118.62	-1349.25	 1621.80
     44.3770	 2059.00	 2112.99	-1336.62	 1620.84
     44.4030	 2037.00	 2107.58	-1353.21	 1619.87
     44.4290	 2091.00	 2102.38	-1294.01	 1618.91
     44.4550	 2061.00	 2097.37	-1319.00	 1617.95
     44.4810	 1996.00	 2092.54	-1379.18	 1616.98
     44.5070	 2024.00	 2087.90	-1346.53	 1616.02
     44.5330	 2031.00	 2083.41	-1335.05	 1615.05
     44.5590	 2047.00	 2079.09	-1314.72	 1614.09
     44.5850	 2004.00	 2074.91	-1353.54	 1613.13
     44.6110	 2035.00	 2070.88	-1318.51	 1612.16
     44.6370	 2001.00	 2066.98	-1348.61	 1611.20
     44.6630	 2051.00	 2063.20	-1294.84	 1610.24
     44.6890	 2005.00	 2059.55	-1337.18	 1609.27
     44.7150	 2027.00	 2056.01	-1311.65	 1608.31
     44.7410	 2153.00	 2052.59	-1182.22	 1607.34
     44.7670	 2130.00	 2049.26	-1201.90	 1606.38
     44.7930	 1965.00	 2046.04	-1363.67	 1605.42
     44.8190	 2077.00	 2042.91	-1248.54	 1604.45
     44.8450	 2017.00	 2039.87	-1305.51	 1603.49
     44.8710	 2066.00	 2036.92	-1253.55	 1602.52
     44.8970	 2017.00	 2034.05	-1299.69	 1601.56
     44.9230	 2026.00	 2031.26	-1287.90	 1600.60
     44.9490	 2065.00	 2028.55	-1246.18	 1599.63
     44.9750	 2084.00	 2025.91	-1224.54	 1598.67
     45.0010	 1992.00	 2023.34	-1313.97	 1597.71
     45.0270	 2000.00	 2020.83	-1303.46	 1596.74
     45.0530	 2007.00	 2018.39	-1294.02	 1595.78
     45.0790	 2016.00	 2016.01	-1282.65	 1594.81
     45.1050	 1999.00	 2013.69	-1297.33	 1593.85
     45.1310	 1992.00	 2011.43	-1302.06	 1592.89
     45.1570	 2039.00	 2009.23	-1252.86	 1591.92
     45.1830	 2016.00	 2007.07	-1273.71	 1590.96
     45.2090	 1999.00	 2004.97	-1288.60	 1589.99
     45.2350	 1986.00	 2002.92	-1299.55	 1589.03
     45.2610	 1999.00	 2000.92	-1284.55	 1588.07
     45.2870	 2023.00	 1998.97	-1258.60	 1587.10
     45.3130	 2025.00	 1997.06	-1254.69	 1586.14
     45.3390	 2030.00	 1995.20	-1247.83	 1585.17
     45.3650	 2016.00	 1993.38	-1260.01	 1584.21
     45.3910	 1964.00	 1991.60	-1310.23	 1583.25
     45.4170	 1987.00	 1989.87	-1285.50	 1582.28
     45.4430	 2054.00	 1988.17	-1216.80	 1581.32
     45.4690	 2032.00	 1986.52	-1237.15	 1580.36
     45.4950	 2012.00	 1984.91	-1255.54	 1579.39
     45.5210	 1984.00	 1983.33	-1281.96	 1578.43
     45.5470	 2001.00	 1981.80	-1263.43	 1577.46
     45.5730	 2026.00	 1980.30	-1236.93	 1576.50
     45.5990	 2002.00	 1978.85	-1259.48	 1575.54
     45.6250	 1971.00	 1977.43	-1289.06	 1574.57
     45.6510	 1961.00	 1976.04	-1297.68	 1573.61
     45.6770	 2006.00	 1974.70	-1251.33	 1572.64
     45.7030	 2007.00	 1973.40	-1249.03	 1571.68
     45.7290	 1973.00	 1972.13	-1281.76	 1570.72
     45.7550	 1976.00	 1970.90	-1277.53	 1569.75
     45.7810	 1975.00	 1969.71	-1277.34	 1568.79
     45.8070	 1991.00	 1968.56	-1260.19	 1567.83
     45.8330	 2001.00	 1967.45	-1249.08	 1566.86
     45.8590	 1980.00	 1966.38	-1269.01	 1565.90
     45.8850	 2000.00	 1965.35	-1247.98	 1564.93
     45.9110	 1995.00	 1964.37	-1252.00	 1563.97
     45.9370	 2004.00	 1963.42	-1242.06	 1563.01
     45.9630	 1992.00	 1962.53	-1253.16	 1562.04
     45.9890	 1944.00	 1961.67	-1300.30	 1561.08
     46.0150	 2014.00	 1960.87	-1229.50	 1560.11
     46.0410	 2029.00	 1960.11	-1213.74	 1559.15
     46.0670	 1999.00	 1959.40	-1243.03	 1558.19
     46.0930	 1980.00	 1958.74	-1261.38	 1557.22
     46.1190	 1981.00	 1958.14	-1259.77	 1556.26
     46.1450	 1964.00	 1957.59	-1276.23	 1555.29
     46.1710	 1978.00	 1957.10	-1261.74	 1554.33
     46.1970	 1980.00	 1956.68	-1259.31	 1553.37
     46.2230	 1933.00	 1956.31	-1305.94	 1552.40
     46.2490	 1966.00	 1956.01	-1272.64	 1551.44
     46.2750	 1955.00	 1955.77	-1283.40	 1550.48
     46.3010	 1861.00	 1955.61	-1377.24	 1549.51
     46.3270	 1883.00	 1955.52	-1355.15	 1548.55
     46.3530	 1880.00	 1955.50	-1358.14	 1547.58
     46.3790	 1971.00	 1955.57	-1267.20	 1546.62
     46.4050	 1988.00	 1955.72	-1250.35	 1545.66
     46.4310	 1970.00	 1955.95	-1268.58	 1544.69
     46.4570	 1955.00	 1956.28	-1283.91	 1543.73
     46.4830	 1970.00	 1956.77	-1269.40	 1542.76
     46.5090	 1873.00	 1957.27	-1366.91	 1541.80
     46.5350	 1940.00	 1957.88	-1300.51	 1540.84
     46.5610	 2017.00	 1958.58	-1224.21	 1539.87
     46.5870	 1995.00	 1959.38	-1247.01	 1538.91
     46.6130	 1883.00	 1960.27	-1359.91	 1537.94
     46.6390	 1939.00	 1961.27	-1304.90	 1536.98
     46.6650	 2007.00	 1962.40	-1238.03	 1536.02
     46.6910	 1964.00	 1963.58	-1282.21	 1535.05
     46.7170	 1883.00	 1964.84	-1364.47	 1534.09
     46.7430	 1906.00	 1966.18	-1342.82	 1533.13
     46.7690	 1879.00	 1967.59	-1371.23	 1532.16
     46.7950	 1959.00	 1969.06	-1292.69	 1531.20
     46.8210	 1947.00	 1970.56	-1306.19	 1530.23
     46.8470	 1981.00	 1972.08	-1273.71	 1529.27
     46.8730	 1954.00	 1973.60	-1302.23	 1528.31
     46.8990	 1913.00	 1975.09	-1344.72	 1527.34
     46.9250	 1944.00	 1976.52	-1315.15	 1526.38
     46.9510	 1923.00	 1977.87	-1337.50	 1525.41
     46.9770	 1982.00	 1979.09	-1279.72	 1524.45
     47.0030	 1966.00	 1980.15	-1296.78	 1523.49
     47.0290	 1896.00	 1981.02	-1367.66	 1522.52
     47.0550	 1929.00	 1981.67	-1335.30	 1521.56
     47.0810	 1941.00	 1982.06	-1323.69	 1520.60
     47.1070	 1953.00	 1982.16	-1311.79	 1519.63
     47.1330	 1954.00	 1981.95	-1310.58	 1518.67
     47.1590	 1956.00	 1981.41	-1308.04	 1517.70
     47.1850	 1912.00	 1980.52	-1351.15	 1516.74
     47.2110	 1986.00	 1979.29	-1275.92	 1515.78
     47.2370	 1955.00	 1977.71	-1305.34	 1514.81
     47.2630	 1905.00	 1975.80	-1353.43	 1513.85
     47.2890	 1931.00	 1973.56	-1325.19	 1512.88
     47.3150	 1927.00	 1971.09	-1326.72	 1511.92
     47.3410	 1873.00	 1968.28	-1377.91	 1510.96
     47.3670	 1899.00	 1965.23	-1348.86	 1509.99
     47.3930	 1866.00	 1961.97	-1378.60	 1509.03
     47.4190	 1879.00	 1958.54	-1362.17	 1508.06
     47.4450	 1889.00	 1954.96	-1348.59	 1507.10
     47.4710	 1893.00	 1951.28	-1340.91	 1506.14
     47.4970	 1912.00	 1947.55	-1318.18	 1505.17
     47.5230	 1870.00	 1943.75	-1356.38	 1504.21
     47.5490	 1874.00	 1939.92	-1348.56	 1503.25
     47.5750	 1947.00	 1936.10	-1271.74	 1502.28
     47.6010	 1962.00	 1932.31	-1252.94	 1501.32
     47.6270	 1949.00	 1928.55	-1262.19	 1500.35
     47.6530	 1962.00	 1924.86	-1245.49	 1499.39
     47.6790	 1891.00	 1921.23	-1312.86	 1498.43
     47.7050	 1886.00	 1917.67	-1314.30	 1497.46
     47.7310	 1879.00	 1914.20	-1317.83	 1496.50
     47.7570	 1934.00	 1910.82	-1259.45	 1495.53
     47.7830	 1940.00	 1907.53	-1250.16	 1494.57
     47.8090	 1918.00	 1904.33	-1268.96	 1493.61
     47.8350	 1956.00	 1901.23	-1227.86	 1492.64
     47.8610	 1962.00	 1898.22	-1218.85	 1491.68
     47.8870	 1905.00	 1895.30	-1272.93	 1490.72
     47.9130	 1874.00	 1892.47	-1301.10	 1489.75
     47.9390	 1865.00	 1889.72	-1307.35	 1488.79
     47.9650	 1890.00	 1887.06	-1279.69	 1487.82
     47.9910	 1910.00	 1884.48	-1257.12	 1486.86
     48.0170	 1912.00	 1882.16	-1252.79	 1486.07
     48.0430	 1931.00	 1880.22	-1231.86	 1485.60
     48.0690	 1934.00	 1878.36	-1226.99	 1485.13
     48.0950	 1868.00	 1876.57	-1291.20	 1484.66
     48.1210	 1839.00	 1874.84	-1318.47	 1484.19
     48.1470	 1900.00	 1873.17	-1255.81	 1483.72
     48.1730	 1953.00	 1871.57	-1201.20	 1483.25
     48.1990	 1970.00	 1870.01	-1182.65	 1482.77
     48.2250	 1954.00	 1868.51	-1197.15	 1482.30
     48.2510	 1933.00	 1867.06	-1216.70	 1481.83
     48.2770	 1948.00	 1865.66	-1200.29	 1481.36
     48.3030	 1934.00	 1864.30	-1212.94	 1480.89
     48.3290	 1885.00	 1862.99	-1260.62	 1480.42
     48.3550	 1851.00	 1861.71	-1293.35	 1479.95
     48.3810	 1849.00	 1860.48	-1294.11	 1479.48
     48.4070	 1877.00	 1859.28	-1264.91	 1479.01
     48.4330	 1895.00	 1858.11	-1245.74	 1478.54
     48.4590	 1886.00	 1856.98	-1253.61	 1478.07
     48.4850	 1844.00	 1855.88	-1294.51	 1477.60
     48.5110	 1841.00	 1854.80	-1296.43	 1477.13
     48.5370	 1847.00	 1853.76	-1289.39	 1476.66
     48.5630	 1874.00	 1852.74	-1261.37	 1476.19
     48.5890	 1930.00	 1851.74	-1204.38	 1475.72
     48.6150	 1879.00	 1850.77	-1254.41	 1475.25
     48.6410	 1841.00	 1849.83	-1291.46	 1474.78
     48.6670	 1880.00	 1848.90	-1251.53	 1474.31
     48.6930	 1843.00	 1848.00	-1287.63	 1473.83
     48.7190	 1847.00	 1847.11	-1282.74	 1473.36
     48.7450	 1844.00	 1846.24	-1284.87	 1472.89
     48.7710	 1845.00	 1845.39	-1283.03	 1472.42
     48.7970	 1877.00	 1844.56	-1250.19	 1471.95
     48.8230	 1879.00	 1843.75	-1247.38	 1471.48
     48.8490	 1922.00	 1842.95	-1203.58	 1471.01
     48.8750	 1861.00	 1842.16	-1263.79	 1470.54
     48.9010	 1868.00	 1841.39	-1256.02	 1470.07
     48.9270	 1908.00	 1840.63	-1215.27	 1469.60
     48.9530	 1897.00	 1839.89	-1225.52	 1469.13
     48.9790	 1975.00	 1839.16	-1146.79	 1468.66
     49.0050	 1852.00	 1838.44	-1269.07	 1468.19
     49.0310	 1886.00	 1837.73	-1234.37	 1467.72
     49.0570	 1884.00	 1837.04	-1235.67	 1467.25
     49.0830	 1798.00	 1836.35	-1320.99	 1466.78
     49.1090	 1898.00	 1835.68	-1220.31	 1466.31
     49.1350	 1883.00	 1835.02	-1234.65	 1465.84
     49.1610	 1899.00	 1834.36	-1217.99	 1465.37
     49.1870	 1847.00	 1833.72	-1269.35	 1464.90
     49.2130	 1846.00	 1833.08	-1269.71	 1464.42
     49.2390	 1807.00	 1832.46	-1308.09	 1463.95
     49.2650	 1841.00	 1831.84	-1273.47	 1463.48
     49.2910	 1820.00	 1831.23	-1293.86	 1463.01
     49.3170	 1908.00	 1830.63	-1205.26	 1462.54
     49.3430	 1853.00	 1830.04	-1259.67	 1462.07
     49.3690	 1907.00	 1829.45	-1205.08	 1461.60
     49.3950	 1762.00	 1828.87	-1349.50	 1461.13
     49.4210	 1790.00	 1828.30	-1320.93	 1460.66
     49.4470	 1846.00	 1827.74	-1264.37	 1460.19
     49.4730	 1864.00	 1827.19	-1245.82	 1459.72
     49.4990	 1823.00	 1826.64	-1286.27	 1459.25
     49.5250	 1778.00	 1826.10	-1330.73	 1458.78
     49.5510	 1802.00	 1825.56	-1306.19	 1458.31
     49.5770	 1854.00	 1825.03	-1253.66	 1457.84
     49.6030	 1956.00	 1824.51	-1151.14	 1457.37
     49.6290	 1851.00	 1824.00	-1255.63	 1456.90
     49.6550	 1855.00	 1823.49	-1251.12	 1456.43
     49.6810	 1905.00	 1822.98	-1200.62	 1455.96
     49.7070	 1861.00	 1822.49	-1244.12	 1455.48
     49.7330	 1863.00	 1822.00	-1241.63	 1455.01
     49.7590	 1821.00	 1821.51	-1283.14	 1454.54
     49.7850	 1908.00	 1821.04	-1195.67	 1454.07
     49.8110	 1834.00	 1820.56	-1269.19	 1453.60
     49.8370	 1871.00	 1820.10	-1231.73	 1453.13
     49.8630	 1818.00	 1819.64	-1284.27	 1452.66
     49.8890	 1886.00	 1819.18	-1215.81	 1452.19
     49.9150	 1843.00	 1818.73	-1258.37	 1451.72
     49.9410	 1917.00	 1818.29	-1183.92	 1451.25
     49.9670	 1939.00	 1817.85	-1161.49	 1450.78
     49.9930	 1909.00	 1817.42	-1191.06	 1450.31
     50.0190	 1880.00	 1817.00	-1219.63	 1449.84
     50.0450	 1928.00	 1816.58	-1171.21	 1449.37
     50.0710	 1863.00	 1816.17	-1235.80	 1448.90
     50.0970	 1831.00	 1815.76	-1267.39	 1448.43
     50.1230	 1892.00	 1815.36	-1205.99	 1447.96
     50.1490	 1911.00	 1814.96	-1186.59	 1447.49
     50.1750	 1917.00	 1814.57	-1180.21	 1447.02
     50.2010	 1864.00	 1814.19	-1232.82	 1446.54
     50.2270	 1844.00	 1813.81	-1252.45	 1446.07
     50.2530	 1814.00	 1813.44	-1282.08	 1445.60
     50.2790	 1851.00	 1813.08	-1244.71	 1445.13
     50.3050	 1879.00	 1812.72	-1216.35	 1444.66
     50.3310	 1843.00	 1812.37	-1252.00	 1444.19
     50.3570	 1882.00	 1812.03	-1212.66	 1443.72
     50.3830	 1943.00	 1811.69	-1151.32	 1443.25
     50.4090	 1921.00	 1811.36	-1172.99	 1442.78
     50.4350	 1854.00	 1811.03	-1239.66	 1442.31
     50.4610	 1876.00	 1810.76	-1217.39	 1441.84
     50.4870	 1860.00	 1810.45	-1233.08	 1441.37
     50.5130	 1861.00	 1810.14	-1231.78	 1440.90
     50.5390	 1891.00	 1809.85	-1201.48	 1440.43
     50.5650	 1909.00	 1809.56	-1183.19	 1439.96
     50.5910	 1866.00	 1809.28	-1225.91	 1439.49
     50.6170	 1840.00	 1809.01	-1251.64	 1439.02
     50.6430	 1875.00	 1808.76	-1216.40	 1438.55
     50.6690	 1866.00	 1808.51	-1225.14	 1438.08
     50.6950	 1849.00	 1808.26	-1241.89	 1437.60
     50.7210	 1824.00	 1808.02	-1266.65	 1437.13
     50.7470	 1807.00	 1807.79	-1283.42	 1436.66
     50.7730	 1889.00	 1807.57	-1201.20	 1436.19
     50.7990	 1929.00	 1807.36	-1160.99	 1435.72
     50.8250	 1876.00	 1807.16	-1213.79	 1435.25
     50.8510	 1874.00	 1806.97	-1215.60	 1434.78
     50.8770	 1900.00	 1806.79	-1189.42	 1434.31
     50.9030	 1935.00	 1806.61	-1154.25	 1433.84
     50.9290	 1930.00	 1806.45	-1159.09	 1433.37
     50.9550	 1895.00	 1806.30	-1193.94	 1432.90
     50.9810	 1903.00	 1806.17	-1185.80	 1432.43
     51.0070	 1873.00	 1806.04	-1215.67	 1431.96
     51.0330	 1874.00	 1805.93	-1214.56	 1431.49
     51.0590	 1907.00	 1805.83	-1181.46	 1431.02
     51.0850	 1891.00	 1805.74	-1197.37	 1430.55
     51.1110	 1863.00	 1805.66	-1225.30	 1430.08
     51.1370	 1790.00	 1805.60	-1298.24	 1429.61
     51.1630	 1766.00	 1805.56	-1322.19	 1429.14
     51.1890	 1886.00	 1805.53	-1202.16	 1428.66
     51.2150	 1886.00	 1805.51	-1202.14	 1428.19
     51.2410	 1865.00	 1805.51	-1223.14	 1427.72
     51.2670	 1849.00	 1805.53	-1239.16	 1427.25
     51.2930	 1808.00	 1805.57	-1280.20	 1426.78
     51.3190	 1802.00	 1805.62	-1286.25	 1426.31
     51.3450	 1826.00	 1805.69	-1262.32	 1425.84
     51.3710	 1866.00	 1805.78	-1222.41	 1425.37
     51.3970	 1843.00	 1805.89	-1245.52	 1424.90
     51.4230	 1895.00	 1806.03	-1193.66	 1424.43
     51.4490	 1880.00	 1806.18	-1208.81	 1423.96
     51.4750	 1864.00	 1806.36	-1224.99	 1423.49
     51.5010	 1873.00	 1806.56	-1216.19	 1423.02
     51.5270	 1862.00	 1806.78	-1227.42	 1422.55
     51.5530	 1824.00	 1807.04	-1265.67	 1422.08
     51.5790	 1856.00	 1807.32	-1233.95	 1421.61
     51.6050	 1869.00	 1807.62	-1221.26	 1421.14
     51.6310	 1830.00	 1807.96	-1260.59	 1420.67
     51.6570	 1818.00	 1808.33	-1272.96	 1420.20
     51.6830	 1856.00	 1808.73	-1235.36	 1419.72
     51.7090	 1872.00	 1809.17	-1219.80	 1419.25
     51.7350	 1879.00	 1809.64	-1213.27	 1418.78
     51.7610	 1829.00	 1810.14	-1263.77	 1418.31
     51.7870	 1844.00	 1810.69	-1249.32	 1417.84
     51.8130	 1804.00	 1811.28	-1289.91	 1417.37
     51.8390	 1794.00	 1811.91	-1300.54	 1416.90
     51.8650	 1828.00	 1812.58	-1267.21	 1416.43
     51.8910	 1852.00	 1813.31	-1243.94	 1415.96
     51.9170	 1879.00	 1814.08	-1217.71	 1415.49
     51.9430	 1877.00	 1814.90	-1220.54	 1415.02
     51.9690	 1834.00	 1815.79	-1264.42	 1414.55
     51.9950	 1802.00	 1816.72	-1297.36	 1414.08
     52.0210	 1804.00	 1818.19	-1296.82	 1414.08
     52.0470	 1902.00	 1819.73	-1200.36	 1414.08
     52.0730	 1904.00	 1821.34	-1199.97	 1414.09
     52.0990	 1891.00	 1823.02	-1214.65	 1414.09
     52.1250	 1878.00	 1824.78	-1229.41	 1414.10
     52.1510	 1767.00	 1826.61	-1342.24	 1414.10
     52.1770	 1819.00	 1828.53	-1292.16	 1414.11
     52.2030	 1804.00	 1830.54	-1309.17	 1414.12
     52.2290	 1902.00	 1832.64	-1213.27	 1414.12
     52.2550	 1921.00	 1834.84	-1196.47	 1414.13
     52.2810	 1797.00	 1837.14	-1322.77	 1414.13
     52.3070	 1786.00	 1839.55	-1336.18	 1414.14
     52.3330	 1854.00	 1842.08	-1270.72	 1414.14
     52.3590	 1857.00	 1844.74	-1270.37	 1414.15
     52.3850	 1870.00	 1847.52	-1260.15	 1414.16
     52.4110	 1825.00	 1850.44	-1308.07	 1414.16
     52.4370	 1829.00	 1853.50	-1307.14	 1414.17
     52.4630	 1882.00	 1856.72	-1257.35	 1414.17
     52.4890	 1825.00	 1860.10	-1317.73	 1414.18
     52.5150	 1860.00	 1863.65	-1286.28	 1414.18
     52.5410	 1913.00	 1867.37	-1237.00	 1414.19
     52.5670	 1877.00	 1871.29	-1276.92	 1414.19
     52.5930	 1866.00	 1875.40	-1292.03	 1414.20
     52.6190	 1834.00	 1879.72	-1328.35	 1414.21
     52.6450	 1875.00	 1884.25	-1291.88	 1414.21
     52.6710	 1929.00	 1889.01	-1242.64	 1414.22
     52.6970	 1924.00	 1894.00	-1252.64	 1414.22
     52.7230	 1820.00	 1899.24	-1361.87	 1414.23
     52.7490	 1851.00	 1904.73	-1336.37	 1414.23
     52.7750	 1886.00	 1910.07	-1306.70	 1414.24
     52.8010	 1897.00	 1916.09	-1301.72	 1414.25
     52.8270	 1924.00	 1922.38	-1281.01	 1414.25
     52.8530	 1898.00	 1928.94	-1313.57	 1414.26
     52.8790	 1934.00	 1935.57	-1284.20	 1414.26
     52.9050	 1905.00	 1942.68	-1320.31	 1414.27
     52.9310	 1889.00	 1950.05	-1343.68	 1414.27
     52.9570	 1916.00	 1957.68	-1324.31	 1414.28
     52.9830	 1891.00	 1965.54	-1357.17	 1414.28
     53.0090	 1917.00	 1973.61	-1339.24	 1414.29
     53.0350	 1909.00	 1981.86	-1355.49	 1414.30
     53.0610	 1956.00	 1990.27	-1316.90	 1414.30
     53.0870	 1924.00	 1998.77	-1357.40	 1414.31
     53.1130	 1933.00	 2007.32	-1356.95	 1414.31
     53.1390	 1973.00	 2015.84	-1325.48	 1414.32
     53.1650	 2016.00	 2024.29	-1290.92	 1414.32
     53.1910	 1972.00	 2032.56	-1343.19	 1414.33
     53.2170	 1988.00	 2040.57	-1335.20	 1414.33
     53.2430	 1989.00	 2048.22	-1341.86	 1414.34
     53.2690	 1946.00	 2055.43	-1392.06	 1414.35
     53.2950	 1948.00	 2062.09	-1396.72	 1414.35
     53.3210	 1960.00	 2068.09	-1390.72	 1414.36
     53.3470	 1991.00	 2073.35	-1364.98	 1414.36
     53.3730	 2016.00	 2077.79	-1344.42	 1414.37
     53.3990	 2071.00	 2081.32	-1292.95	 1414.37
     53.4250	 2086.00	 2083.88	-1280.51	 1414.38
     53.4510	 2002.00	 2085.45	-1366.08	 1414.39
     53.4770	 2016.00	 2085.98	-1352.61	 1414.39
     53.5030	 2017.00	 2085.48	-1351.11	 1414.40
     53.5290	 1981.00	 2083.97	-1385.60	 1414.40
     53.5550	 2001.00	 2081.47	-1363.10	 1414.41
     53.5810	 1968.00	 2078.04	-1392.67	 1414.41
     53.6070	 1999.00	 2073.75	-1357.38	 1414.42
     53.6330	 1987.00	 2068.68	-1364.31	 1414.42
     53.6590	 1928.00	 2062.91	-1417.54	 1414.43
     53.6850	 1953.00	 2056.53	-1386.17	 1414.44
     53.7110	 1960.00	 2049.66	-1372.29	 1414.44
     53.7370	 2009.00	 2042.38	-1316.01	 1414.45
     53.7630	 1971.00	 2034.79	-1346.42	 1414.45
     53.7890	 1922.00	 2026.98	-1387.61	 1414.46
     53.8150	 1909.00	 2019.03	-1392.66	 1414.46
     53.8410	 1899.00	 2011.02	-1394.65	 1414.47
     53.8670	 1903.00	 2003.02	-1382.65	 1414.48
     53.8930	 1951.00	 1995.08	-1326.72	 1414.48
     53.9190	 1974.00	 1987.27	-1295.90	 1414.49
     53.9450	 1967.00	 1979.61	-1295.24	 1414.49
     53.9710	 1951.00	 1972.15	-1303.78	 1414.50
     53.9970	 2000.00	 1964.91	-1247.54	 1414.50
     54.0230	 1934.00	 1957.91	-1306.54	 1414.51
     54.0490	 1925.00	 1951.17	-1308.81	 1414.51
     54.0750	 1988.00	 1944.71	-1239.34	 1414.52
     54.1010	 1938.00	 1938.51	-1283.15	 1414.53
     54.1270	 1908.00	 1932.60	-1307.23	 1414.53
     54.1530	 1965.00	 1926.97	-1244.60	 1414.54
     54.1790	 1952.00	 1921.61	-1252.24	 1414.54
     54.2050	 1869.00	 1916.52	-1330.16	 1414.55
     54.2310	 1909.00	 1911.70	-1285.33	 1414.55
     54.2570	 1889.00	 1907.14	-1300.77	 1414.56
     54.2830	 1894.00	 1902.83	-1291.46	 1414.56
     54.3090	 1942.00	 1898.76	-1239.39	 1414.57
     54.3350	 1843.00	 1894.92	-1334.55	 1414.58
     54.3610	 1875.00	 1891.31	-1298.94	 1414.58
     54.3870	 1920.00	 1887.91	-1250.54	 1414.59
     54.4130	 1862.00	 1884.72	-1305.35	 1414.59
     54.4390	 1801.00	 1881.73	-1363.36	 1414.60
     54.4650	 1902.00	 1878.93	-1259.56	 1414.60
     54.4910	 1899.00	 1876.30	-1259.93	 1414.61
     54.5170	 1912.00	 1873.85	-1244.49	 1414.62
     54.5430	 1881.00	 1871.57	-1273.20	 1414.62
     54.5690	 1859.00	 1869.45	-1293.08	 1414.63
     54.5950	 1825.00	 1867.47	-1325.11	 1414.63
     54.6210	 1960.00	 1865.65	-1188.28	 1414.64
     54.6470	 1908.00	 1863.96	-1238.59	 1414.64
     54.6730	 1845.00	 1862.41	-1300.04	 1414.65
     54.6990	 1797.00	 1860.99	-1346.62	 1414.65
     54.7250	 1910.00	 1859.69	-1232.32	 1414.66
     54.7510	 1877.00	 1858.51	-1264.14	 1414.67
     54.7770	 1906.00	 1857.44	-1234.08	 1414.67
     54.8030	 1839.00	 1856.49	-1300.12	 1414.68
     54.8290	 1875.00	 1855.65	-1263.28	 1414.68
     54.8550	 1918.00	 1854.91	-1219.54	 1414.69
     54.8810	 1834.00	 1854.28	-1302.91	 1414.69
     54.9070	 1879.00	 1853.74	-1257.37	 1414.70
     54.9330	 1847.00	 1853.31	-1288.94	 1414.71
     54.9590	 1856.00	 1852.97	-1279.60	 1414.71
     54.9850	 1897.00	 1852.72	-1238.35	 1414.72
     55.0110	 1896.00	 1852.57	-1239.20	 1414.72
     55.0370	 1884.00	 1852.50	-1251.13	 1414.73
     55.0630	 1870.00	 1852.53	-1265.16	 1414.73
     55.0890	 1902.00	 1852.65	-1233.28	 1414.74
     55.1150	 1890.00	 1852.86	-1245.49	 1414.74
     55.1410	 1845.00	 1853.16	-1290.79	 1414.75
     55.1670	 1858.00	 1853.55	-1278.18	 1414.76
     55.1930	 1838.00	 1854.03	-1298.66	 1414.76
     55.2190	 1889.00	 1854.60	-1248.23	 1414.77
     55.2450	 1858.00	 1855.26	-1279.89	 1414.77
     55.2710	 1925.00	 1856.01	-1213.64	 1414.78
     55.2970	 1889.00	 1856.86	-1250.49	 1414.78
     55.3230	 1819.00	 1857.80	-1321.43	 1414.79
     55.3490	 1869.00	 1858.84	-1272.48	 1414.79
     55.3750	 1894.00	 1859.99	-1248.62	 1414.80
     55.4010	 1847.00	 1861.23	-1296.86	 1414.81
     55.4270	 1824.00	 1862.58	-1321.21	 1414.81
     55.4530	 1831.00	 1864.03	-1315.67	 1414.82
     55.4790	 1827.00	 1865.60	-1321.23	 1414.82
     55.5050	 1827.00	 1867.28	-1322.92	 1414.83
     55.5310	 1882.00	 1869.09	-1269.72	 1414.83
     55.5570	 1867.00	 1871.01	-1286.64	 1414.84
     55.5830	 1824.00	 1873.06	-1331.70	 1414.85
     55.6090	 1830.00	 1875.25	-1327.88	 1414.85
     55.6350	 1869.00	 1877.57	-1291.21	 1414.86
     55.6610	 1914.00	 1880.04	-1248.68	 1414.86
     55.6870	 1918.00	 1882.66	-1247.30	 1414.87
     55.7130	 1920.00	 1885.44	-1248.07	 1414.87
     55.7390	 1901.00	 1888.38	-1270.02	 1414.88
     55.7650	 1865.00	 1891.50	-1309.13	 1414.88
     55.7910	 1858.00	 1894.80	-1319.43	 1414.89
     55.8170	 1937.00	 1898.28	-1243.91	 1414.90
     55.8430	 1962.00	 1901.97	-1222.60	 1414.90
     55.8690	 1937.00	 1905.86	-1251.49	 1414.91
     55.8950	 1888.00	 1909.98	-1304.61	 1414.91
     55.9210	 1863.00	 1914.32	-1333.95	 1414.92
     55.9470	 1865.00	 1918.91	-1336.54	 1414.92
     55.9730	 1915.00	 1923.75	-1291.38	 1414.93
     55.9990	 1946.00	 1928.86	-1265.49	 1414.94
     56.0250	 1896.00	 1934.24	-1320.88	 1414.94
     56.0510	 1899.00	 1939.93	-1323.56	 1414.95
     56.0770	 1959.00	 1945.92	-1269.55	 1414.95
     56.1030	 2017.00	 1952.23	-1217.87	 1414.96
     56.1290	 1991.00	 1958.89	-1250.52	 1414.96
     56.1550	 1957.00	 1965.89	-1291.52	 1414.97
     56.1810	 1997.00	 1973.27	-1258.90	 1414.97
     56.2070	 2008.00	 1981.02	-1255.66	 1414.98
     56.2330	 1981.00	 1989.18	-1290.81	 1414.99
     56.2590	 1968.00	 1997.74	-1312.37	 1414.99
     56.2850	 1991.00	 2006.73	-1298.36	 1415.00
     56.3110	 1993.00	 2016.14	-1305.78	 1415.00
     56.3370	 2005.00	 2026.00	-1303.63	 1415.01
     56.3630	 2051.00	 2036.31	-1267.94	 1415.01
     56.3890	 2085.00	 2047.05	-1244.68	 1415.02
     56.4150	 2048.00	 2058.24	-1292.88	 1415.02
     56.4410	 2041.00	 2069.87	-1311.50	 1415.03
     56.4670	 2022.00	 2081.91	-1342.54	 1415.04
     56.4930	 1992.00	 2094.35	-1384.98	 1415.04
     56.5190	 2075.00	 2107.14	-1314.77	 1415.05
     56.5450	 2108.00	 2120.26	-1294.89	 1415.05
     56.5710	 2126.00	 2133.63	-1290.26	 1415.06
     56.5970	 2132.00	 2147.20	-1297.83	 1415.06
     56.6230	 2086.00	 2160.89	-1357.52	 1415.07
     56.6490	 2167.00	 2174.60	-1290.23	 1415.08
     56.6750	 2148.00	 2188.21	-1322.84	 1415.08
     56.7010	 2209.00	 2201.62	-1275.25	 1415.09
     56.7270	 2206.00	 2214.68	-1291.32	 1415.09
     56.7530	 2221.00	 2227.26	-1288.89	 1415.10
     56.7790	 2220.00	 2239.18	-1301.81	 1415.10
     56.8050	 2173.00	 2250.31	-1359.94	 1415.11
     56.8310	 2230.00	 2260.48	-1313.11	 1415.11
     56.8570	 2275.00	 2269.53	-1277.16	 1415.12
     56.8830	 2256.00	 2277.33	-1303.96	 1415.13
     56.9090	 2274.00	 2283.74	-1292.37	 1415.13
     56.9350	 2314.00	 2288.66	-1257.29	 1415.14
     56.9610	 2227.00	 2292.00	-1347.63	 1415.14
     56.9870	 2265.00	 2293.70	-1311.33	 1415.15
     57.0130	 2317.00	 2293.73	-1259.36	 1415.15
     57.0390	 2264.00	 2292.10	-1310.73	 1415.16
     57.0650	 2258.00	 2288.83	-1313.47	 1415.17
     57.0910	 2243.00	 2284.00	-1323.63	 1415.17
     57.1170	 2243.00	 2277.68	-1317.31	 1415.18
     57.1430	 2277.00	 2269.98	-1275.61	 1415.18
     57.1690	 2283.00	 2261.04	-1260.67	 1415.19
     57.1950	 2226.00	 2250.99	-1307.62	 1415.19
     57.2210	 2186.00	 2239.98	-1336.61	 1415.20
     57.2470	 2242.00	 2228.16	-1268.79	 1415.20
     57.2730	 2213.00	 2215.69	-1285.33	 1415.21
     57.2990	 2282.00	 2202.73	-1203.36	 1415.22
     57.3250	 2257.00	 2189.40	-1215.03	 1415.22
     57.3510	 2195.00	 2175.84	-1263.47	 1415.23
     57.3770	 2216.00	 2162.17	-1228.80	 1415.23
     57.4030	 2212.00	 2148.50	-1219.13	 1415.24
     57.4290	 2116.00	 2134.92	-1301.55	 1415.24
     57.4550	 2137.00	 2121.52	-1267.15	 1415.25
     57.4810	 2149.00	 2108.36	-1241.99	 1415.25
     57.5070	 2117.00	 2095.50	-1261.13	 1415.26
     57.5330	 2156.00	 2082.99	-1209.62	 1415.27
     57.5590	 2076.00	 2070.85	-1277.48	 1415.27
     57.5850	 2010.00	 2059.11	-1331.75	 1415.28
     57.6110	 2061.00	 2047.80	-1269.43	 1415.28
     57.6370	 2059.00	 2036.92	-1260.56	 1415.29
     57.6630	 1984.00	 2026.48	-1325.11	 1415.29
     57.6890	 2007.00	 2016.48	-1292.11	 1415.30
     57.7150	 1993.00	 2006.91	-1296.54	 1415.31
     57.7410	 1977.00	 1997.76	-1303.40	 1415.31
     57.7670	 2017.00	 1989.04	-1254.67	 1415.32
     57.7930	 1962.00	 1980.72	-1301.35	 1415.32
     57.8190	 1955.00	 1972.79	-1300.42	 1415.33
     57.8450	 1940.00	 1965.25	-1307.88	 1415.33
     57.8710	 1970.00	 1958.06	-1270.69	 1415.34
     57.8970	 1970.00	 1951.23	-1263.86	 1415.34
     57.9230	 1904.00	 1944.73	-1323.37	 1415.35
     57.9490	 1852.00	 1938.56	-1369.19	 1415.36
     57.9750	 1871.00	 1932.68	-1344.32	 1415.36
     58.0010	 1872.00	 1927.10	-1337.74	 1415.37
     58.0270	 1893.00	 1921.80	-1311.43	 1415.37
     58.0530	 1908.00	 1916.76	-1291.39	 1415.38
     58.0790	 1869.00	 1911.97	-1325.60	 1415.38
     58.1050	 1865.00	 1907.41	-1325.04	 1415.39
     58.1310	 1912.00	 1903.08	-1273.71	 1415.40
     58.1570	 1809.00	 1898.97	-1372.60	 1415.40
     58.1830	 1820.00	 1895.06	-1357.69	 1415.41
     58.2090	 1877.00	 1891.34	-1296.97	 1415.41
     58.2350	 1838.00	 1887.80	-1332.43	 1415.42
     58.2610	 1888.00	 1884.43	-1279.06	 1415.42
     58.2870	 1827.00	 1881.23	-1336.86	 1415.43
     58.3130	 1859.00	 1878.19	-1301.82	 1415.43
     58.3390	 1875.00	 1875.29	-1282.92	 1415.44
     58.3650	 1875.00	 1872.54	-1280.17	 1415.45
     58.3910	 1850.00	 1869.92	-1302.55	 1415.45
     58.4170	 1773.00	 1867.42	-1377.05	 1415.46
     58.4430	 1889.00	 1865.05	-1258.68	 1415.46
     58.4690	 1870.00	 1861.74	-1274.37	 1415.47
     58.4950	 1818.00	 1859.59	-1324.22	 1415.47
     58.5210	 1862.00	 1857.55	-1278.18	 1415.48
     58.5470	 1894.00	 1855.60	-1244.24	 1415.48
     58.5730	 1845.00	 1853.23	-1290.87	 1415.49
     58.5990	 1818.00	 1851.48	-1316.11	 1415.50
     58.6250	 1824.00	 1849.80	-1308.44	 1415.50
     58.6510	 1805.00	 1848.22	-1325.85	 1415.51
     58.6770	 1819.00	 1846.70	-1310.34	 1415.51
     58.7030	 1817.00	 1845.27	-1310.90	 1415.52
     58.7290	 1813.00	 1843.91	-1313.54	 1415.53
     58.7550	 1823.00	 1842.66	-1302.29	 1415.58
     58.7810	 1790.00	 1841.47	-1334.11	 1415.62
     58.8070	 1818.00	 1840.35	-1304.98	 1415.67
     58.8330	 1906.00	 1839.29	-1215.92	 1415.72
     58.8590	 1914.00	 1838.29	-1206.92	 1415.76
     58.8850	 1878.00	 1837.35	-1241.98	 1415.81
     58.9110	 1857.00	 1836.46	-1262.09	 1415.86
     58.9370	 1844.00	 1835.62	-1274.25	 1415.91
     58.9630	 1825.00	 1834.84	-1292.47	 1415.95
     58.9890	 1783.00	 1834.10	-1333.73	 1416.00
     59.0150	 1807.00	 1833.41	-1309.04	 1416.05
     59.0410	 1857.00	 1832.77	-1258.40	 1416.09
     59.0670	 1834.00	 1832.17	-1280.81	 1416.14
     59.0930	 1850.00	 1831.62	-1264.25	 1416.19
     59.1190	 1821.00	 1831.11	-1292.74	 1416.24
     59.1450	 1846.00	 1830.64	-1267.27	 1416.28
     59.1710	 1874.00	 1830.21	-1238.84	 1416.33
     59.1970	 1881.00	 1829.82	-1231.45	 1416.38
     59.2230	 1849.00	 1829.47	-1263.10	 1416.42
     59.2490	 1880.00	 1829.16	-1231.79	 1416.47
     59.2750	 1867.00	 1828.88	-1244.51	 1416.52
     59.3010	 1830.00	 1828.64	-1281.27	 1416.57
     59.3270	 1862.00	 1828.44	-1249.07	 1416.61
     59.3530	 1891.00	 1828.27	-1219.90	 1416.66
     59.3790	 1799.00	 1828.13	-1311.76	 1416.71
     59.4050	 1846.00	 1828.03	-1264.66	 1416.75
     59.4310	 1866.00	 1827.96	-1244.59	 1416.80
     59.4570	 1829.00	 1827.93	-1281.56	 1416.85
     59.4830	 1867.00	 1827.93	-1243.56	 1416.90
     59.5090	 1944.00	 1827.96	-1166.59	 1416.94
     59.5350	 1930.00	 1828.02	-1180.65	 1416.99
     59.5610	 1915.00	 1828.12	-1195.75	 1417.04
     59.5870	 1836.00	 1828.24	-1274.88	 1417.08
     59.6130	 1901.00	 1828.40	-1210.04	 1417.13
     59.6390	 1850.00	 1828.60	-1261.23	 1417.18
     59.6650	 1836.00	 1828.82	-1275.45	 1417.23
     59.6910	 1829.00	 1829.08	-1282.71	 1417.27
     59.7170	 1885.00	 1829.37	-1227.00	 1417.32
     59.7430	 1854.00	 1829.69	-1258.32	 1417.37
     59.7690	 1779.00	 1830.04	-1333.67	 1417.41
     59.7950	 1862.00	 1830.43	-1251.06	 1417.46
     59.8210	 1857.00	 1830.85	-1256.48	 1417.51
     59.8470	 1893.00	 1831.30	-1220.93	 1417.56
     59.8730	 1852.00	 1831.79	-1262.42	 1417.60
     59.8990	 1885.00	 1832.31	-1229.94	 1417.65
     59.9250	 1846.00	 1832.87	-1269.50	 1417.70
     59.9510	 1813.00	 1833.46	-1303.09	 1417.74
     59.9770	 1815.00	 1834.09	-1301.72	 1417.79
     60.0030	 1886.00	 1834.76	-1231.39	 1417.84
     60.0290	 1786.00	 1835.46	-1332.09	 1417.89
     60.0550	 1807.00	 1836.20	-1311.83	 1417.93
     60.0810	 1907.00	 1836.98	-1212.61	 1417.98
     60.1070	 1917.00	 1837.80	-1203.43	 1418.03
     60.1330	 1922.00	 1838.66	-1199.29	 1418.07
     60.1590	 1909.00	 1839.56	-1213.19	 1418.12
     60.1850	 1802.00	 1840.51	-1321.14	 1418.17
     60.2110	 1831.00	 1841.45	-1293.09	 1418.22
     60.2370	 1782.00	 1842.49	-1343.12	 1418.26
     60.2630	 1820.00	 1843.57	-1306.20	 1418.31
     60.2890	 1830.00	 1844.70	-1297.33	 1418.36
     60.3150	 1899.00	 1845.86	-1229.49	 1418.41
     60.3410	 1891.00	 1847.09	-1238.72	 1418.45
     60.3670	 1819.00	 1848.37	-1312.00	 1418.50
     60.3930	 1829.00	 1849.71	-1303.34	 1418.55
     60.4190	 1850.00	 1851.10	-1283.73	 1418.59
     60.4450	 1899.00	 1852.55	-1236.19	 1418.64
     60.4710	 1818.00	 1854.07	-1318.70	 1418.69
     60.4970	 1846.00	 1855.64	-1292.27	 1418.74
     60.5230	 1877.00	 1857.28	-1262.91	 1418.78
     60.5490	 1847.00	 1858.99	-1294.62	 1418.83
     60.5750	 1830.00	 1860.77	-1313.40	 1418.88
     60.6010	 1921.00	 1862.62	-1224.25	 1418.92
     60.6270	 1926.00	 1864.54	-1221.17	 1418.97
     60.6530	 1821.00	 1866.55	-1328.18	 1419.02
     60.6790	 1868.00	 1868.63	-1283.26	 1419.07
     60.7050	 1892.00	 1870.80	-1261.44	 1419.11
     60.7310	 1903.00	 1873.07	-1252.70	 1419.16
     60.7570	 1847.00	 1875.42	-1311.05	 1419.21
     60.7830	 1862.00	 1877.87	-1298.50	 1419.25
     60.8090	 1869.00	 1880.43	-1294.06	 1419.30
     60.8350	 1883.00	 1883.09	-1282.72	 1419.35
     60.8610	 1843.00	 1885.86	-1325.49	 1419.40
     60.8870	 1793.00	 1888.74	-1378.38	 1419.44
     60.9130	 1825.00	 1891.75	-1349.38	 1419.49
     60.9390	 1774.00	 1894.89	-1403.52	 1419.54
     60.9650	 1862.00	 1898.16	-1318.79	 1419.58
     60.9910	 1892.00	 1901.57	-1292.20	 1419.63
     61.0170	 1878.00	 1905.13	-1309.76	 1419.68
     61.0430	 1844.00	 1908.84	-1347.47	 1419.73
     61.0690	 1860.00	 1912.72	-1335.35	 1419.77
     61.0950	 1889.00	 1916.76	-1310.40	 1419.82
     61.1210	 1941.00	 1920.99	-1262.62	 1419.87
     61.1470	 1979.00	 1925.40	-1229.04	 1419.91
     61.1730	 1945.00	 1930.02	-1267.65	 1419.96
     61.1990	 1903.00	 1934.84	-1314.47	 1420.01
     61.2250	 1848.00	 1939.88	-1374.51	 1420.06
     61.2510	 1858.00	 1945.15	-1369.79	 1420.10
     61.2770	 1891.00	 1950.67	-1342.30	 1420.15
     61.3030	 1900.00	 1956.45	-1339.08	 1420.20
     61.3290	 1900.00	 1962.49	-1345.12	 1420.24
     61.3550	 1843.00	 1968.82	-1408.45	 1420.29
     61.3810	 1871.00	 1975.45	-1387.09	 1420.34
     61.4070	 1923.00	 1982.40	-1342.04	 1420.39
     61.4330	 1898.00	 1989.69	-1374.32	 1420.43
     61.4590	 1934.00	 1997.32	-1345.95	 1420.48
     61.4850	 1969.00	 2005.33	-1318.96	 1420.53
     61.5110	 1914.00	 2013.72	-1382.35	 1420.57
     61.5370	 1912.00	 2022.53	-1393.16	 1420.62
     61.5630	 1960.00	 2031.77	-1354.40	 1420.67
     61.5890	 1913.00	 2041.46	-1411.09	 1420.72
     61.6150	 1923.00	 2051.64	-1411.27	 1420.76
     61.6410	 1988.00	 2062.31	-1356.94	 1420.81
     61.6670	 2019.00	 2073.51	-1337.14	 1420.86
     61.6930	 1966.00	 2085.26	-1401.89	 1420.90
     61.7190	 1909.00	 2097.58	-1471.22	 1420.95
     61.7450	 1948.00	 2110.51	-1445.14	 1421.00
     61.7710	 2033.00	 2124.06	-1373.69	 1421.05
     61.7970	 2088.00	 2138.25	-1332.88	 1421.09
     61.8230	 2115.00	 2153.12	-1320.75	 1421.14
     61.8490	 2059.00	 2168.68	-1392.31	 1421.19
     61.8750	 2106.00	 2184.94	-1361.57	 1421.23
     61.9010	 2157.00	 2201.92	-1327.55	 1421.28
     61.9270	 2206.00	 2219.64	-1296.27	 1421.33
     61.9530	 2235.00	 2238.09	-1285.72	 1421.38
     61.9790	 2204.00	 2257.27	-1335.90	 1421.42
     62.0050	 2154.00	 2277.17	-1405.80	 1421.47
     62.0310	 2156.00	 2297.77	-1424.40	 1421.52
     62.0570	 2232.00	 2319.04	-1369.67	 1421.56
     62.0830	 2305.00	 2340.93	-1318.56	 1421.61
     62.1090	 2368.00	 2363.37	-1278.00	 1421.66
     62.1350	 2416.00	 2386.30	-1252.93	 1421.71
     62.1610	 2435.00	 2409.60	-1257.23	 1421.75
     62.1870	 2518.00	 2433.16	-1197.79	 1421.80
     62.2130	 2631.00	 2456.85	-1108.48	 1421.85
     62.2390	 2595.00	 2480.50	-1168.13	 1421.89
     62.2650	 2532.00	 2503.92	-1254.55	 1421.94
     62.2910	 2526.00	 2526.91	-1283.55	 1421.99
     62.3170	 2693.00	 2549.26	-1138.89	 1422.04
     62.3430	 2738.00	 2570.71	-1115.35	 1422.08
     62.3690	 2711.00	 2591.03	-1162.66	 1422.13
     62.3950	 2715.00	 2609.95	-1177.59	 1422.18
     62.4210	 2812.00	 2627.24	-1097.87	 1422.22
     62.4470	 2774.00	 2642.63	-1151.26	 1422.27
     62.4730	 2795.00	 2655.91	-1143.54	 1422.32
     62.4990	 2855.00	 2666.87	-1094.50	 1422.37
     62.5250	 2900.00	 2675.34	-1057.97	 1422.41
     62.5510	 2916.00	 2681.19	-1047.82	 1422.46
     62.5770	 2912.00	 2684.33	-1054.96	 1422.51
     62.6030	 2836.00	 2684.70	-1131.34	 1422.55
     62.6290	 2851.00	 2682.32	-1113.95	 1422.60
     62.6550	 2923.00	 2677.22	-1036.85	 1422.65
     62.6810	 2907.00	 2669.50	-1045.13	 1422.70
     62.7070	 2836.00	 2659.28	-1105.91	 1422.74
     62.7330	 2860.00	 2646.74	-1069.37	 1422.79
     62.7590	 2799.00	 2632.07	-1115.70	 1422.84
     62.7850	 2958.00	 2615.49	 -940.12	 1422.88
     62.8110	 2791.00	 2597.23	-1088.87	 1422.93
     62.8370	 2761.00	 2577.54	-1099.17	 1422.98
     62.8630	 2677.00	 2556.65	-1162.28	 1423.03
     62.8890	 2683.00	 2534.82	-1134.45	 1423.07
     62.9150	 2633.00	 2512.26	-1161.90	 1423.12
     62.9410	 2638.00	 2489.21	-1133.84	 1423.17
     62.9670	 2531.00	 2465.86	-1217.49	 1423.21
     62.9930	 2544.00	 2442.40	-1181.04	 1423.26
     63.0190	 2474.00	 2419.00	-1227.63	 1423.31
     63.0450	 2467.00	 2395.79	-1211.42	 1423.36
     63.0710	 2449.00	 2372.90	-1206.53	 1423.40
     63.0970	 2394.00	 2350.44	-1239.07	 1423.45
     63.1230	 2373.00	 2328.49	-1238.12	 1423.50
     63.1490	 2316.00	 2307.12	-1273.75	 1423.54
     63.1750	 2315.00	 2286.38	-1254.01	 1423.59
     63.2010	 2273.00	 2266.32	-1275.95	 1423.64
     63.2270	 2323.00	 2246.95	-1206.59	 1423.69
     63.2530	 2284.00	 2228.31	-1226.94	 1423.73
     63.2790	 2251.00	 2210.38	-1242.02	 1423.78
     63.3050	 2162.00	 2193.18	-1313.81	 1423.83
     63.3310	 2134.00	 2176.70	-1325.33	 1423.87
     63.3570	 2084.00	 2160.92	-1359.56	 1423.92
     63.3830	 2055.00	 2145.84	-1373.47	 1423.97
     63.4090	 2054.00	 2131.43	-1360.06	 1424.02
     63.4350	 2021.00	 2117.68	-1379.31	 1424.06
     63.4610	 2031.00	 2104.55	-1356.18	 1424.11
     63.4870	 1987.00	 2092.03	-1387.66	 1424.16
     63.5130	 1952.00	 2080.10	-1410.73	 1424.20
     63.5390	 1975.00	 2068.72	-1376.35	 1424.25
     63.5650	 1951.00	 2057.88	-1389.51	 1424.30
     63.5910	 1937.00	 2047.56	-1393.19	 1424.35
     63.6170	 1915.00	 2037.72	-1405.35	 1424.39
     63.6430	 1893.00	 2028.34	-1417.97	 1424.44
     63.6690	 1906.00	 2019.41	-1396.04	 1424.49
     63.6950	 1923.00	 2010.90	-1370.53	 1424.53
     63.7210	 1911.00	 2002.78	-1374.42	 1424.58
     63.7470	 1886.00	 1995.05	-1391.68	 1424.63
     63.7730	 1890.00	 1987.68	-1380.31	 1424.68
     63.7990	 1849.00	 1980.66	-1414.29	 1424.72
     63.8250	 1867.00	 1973.95	-1389.59	 1424.77
     63.8510	 1893.00	 1967.56	-1357.19	 1424.82
     63.8770	 1899.00	 1961.46	-1345.10	 1424.86
     63.9030	 1911.00	 1955.65	-1327.28	 1424.91
     63.9290	 1919.00	 1950.09	-1313.72	 1424.96
     63.9550	 1904.00	 1944.79	-1323.42	 1425.01
     63.9810	 1860.00	 1939.73	-1362.36	 1425.05
     64.0070	 1877.00	 1934.89	-1340.52	 1425.10
     64.0330	 1878.00	 1930.27	-1334.91	 1425.15
     64.0590	 1864.00	 1925.86	-1344.49	 1425.19
     64.0850	 1840.00	 1921.65	-1364.28	 1425.24
     64.1110	 1807.00	 1917.62	-1393.25	 1425.29
     64.1370	 1864.00	 1913.77	-1332.40	 1425.34
     64.1630	 1844.00	 1910.08	-1348.72	 1425.38
     64.1890	 1815.00	 1906.56	-1374.20	 1425.43
     64.2150	 1862.00	 1903.20	-1323.83	 1425.48
     64.2410	 1869.00	 1899.98	-1313.62	 1425.53
     64.2670	 1875.00	 1896.91	-1304.54	 1425.57
     64.2930	 1844.00	 1893.97	-1332.60	 1425.62
     64.3190	 1852.00	 1891.16	-1321.79	 1425.67
     64.3450	 1850.00	 1888.48	-1321.11	 1425.71
     64.3710	 1792.00	 1885.91	-1376.54	 1425.76
     64.3970	 1769.00	 1883.46	-1397.09	 1425.81
     64.4230	 1797.00	 1881.12	-1366.75	 1425.86
     64.4490	 1817.00	 1878.89	-1344.52	 1425.90
     64.4750	 1843.00	 1876.76	-1316.39	 1425.95
     64.5010	 1919.00	 1874.73	-1238.36	 1426.00
     64.5270	 1899.00	 1872.79	-1256.43	 1426.04
     64.5530	 1834.00	 1870.95	-1319.58	 1426.09
     64.5790	 1783.00	 1869.20	-1368.83	 1426.14
     64.6050	 1802.00	 1867.54	-1348.17	 1426.19
     64.6310	 1845.00	 1865.96	-1303.59	 1426.23
     64.6570	 1849.00	 1864.47	-1298.10	 1426.28
     64.6830	 1838.00	 1863.06	-1307.69	 1426.33
     64.7090	 1797.00	 1861.72	-1347.35	 1426.37
     64.7350	 1800.00	 1860.47	-1343.10	 1426.42
     64.7610	 1827.00	 1859.29	-1314.92	 1426.47
     64.7870	 1797.00	 1858.19	-1343.82	 1426.52
     64.8130	 1851.00	 1857.16	-1288.79	 1426.56
     64.8390	 1818.00	 1855.53	-1320.16	 1425.93
     64.8650	 1787.00	 1853.52	-1349.15	 1424.85
     64.8910	 1833.00	 1851.58	-1301.21	 1423.77
     64.9170	 1828.00	 1849.71	-1304.34	 1422.69
     64.9430	 1851.00	 1847.92	-1279.55	 1421.61
     64.9690	 1834.00	 1846.19	-1294.82	 1420.54
     64.9950	 1852.00	 1844.53	-1275.17	 1419.46
     65.0210	 1825.00	 1842.95	-1300.58	 1418.38
     65.0470	 1836.00	 1841.43	-1288.06	 1417.30
     65.0730	 1892.00	 1839.98	-1230.61	 1416.22
     65.0990	 1887.00	 1838.59	-1234.23	 1415.14
     65.1250	 1772.00	 1837.28	-1347.91	 1414.06
     65.1510	 1863.00	 1836.03	-1255.66	 1412.98
     65.1770	 1831.00	 1834.85	-1286.48	 1411.90
     65.2030	 1817.00	 1833.73	-1299.36	 1410.82
     65.2290	 1751.00	 1832.67	-1364.30	 1409.74
     65.2550	 1817.00	 1831.68	-1297.31	 1408.66
     65.2810	 1801.00	 1830.74	-1312.37	 1407.58
     65.3070	 1816.00	 1829.86	-1296.49	 1406.50
     65.3330	 1836.00	 1829.03	-1275.66	 1405.42
     65.3590	 1806.00	 1828.24	-1304.87	 1404.34
     65.3850	 1846.00	 1827.50	-1264.13	 1403.26
     65.4110	 1861.00	 1826.80	-1248.43	 1402.18
     65.4370	 1817.00	 1826.12	-1291.75	 1401.10
     65.4630	 1861.00	 1825.47	-1247.10	 1400.02
     65.4890	 1826.00	 1824.83	-1281.46	 1398.94
     65.5150	 1801.00	 1824.19	-1305.82	 1397.86
     65.5410	 1776.00	 1823.55	-1330.18	 1396.78
     65.5670	 1736.00	 1822.89	-1369.52	 1395.70
     65.5930	 1828.00	 1822.20	-1276.84	 1394.62
     65.6190	 1809.00	 1821.48	-1295.11	 1393.54
     65.6450	 1882.00	 1820.71	-1221.34	 1392.46
     65.6710	 1882.00	 1819.88	-1220.51	 1391.39
     65.6970	 1883.00	 1818.98	-1218.61	 1390.31
     65.7230	 1844.00	 1818.01	-1256.64	 1389.23
     65.7490	 1829.00	 1816.95	-1270.58	 1388.15
     65.7750	 1837.00	 1815.81	-1261.44	 1387.07
     65.8010	 1874.00	 1814.57	-1223.21	 1385.99
     65.8270	 1821.00	 1813.25	-1274.88	 1384.91
     65.8530	 1745.00	 1811.83	-1349.46	 1383.83
     65.8790	 1795.00	 1810.33	-1297.96	 1382.75
     65.9050	 1826.00	 1808.74	-1265.37	 1381.67
     65.9310	 1839.00	 1807.07	-1250.70	 1380.59
     65.9570	 1816.00	 1805.33	-1271.96	 1379.51
     65.9830	 1786.00	 1803.53	-1300.16	 1378.43
     66.0090	 1822.00	 1801.68	-1262.31	 1377.35
     66.0350	 1828.00	 1799.78	-1254.41	 1376.27
     66.0610	 1817.00	 1797.85	-1263.48	 1375.19
     66.0870	 1817.00	 1795.90	-1261.53	 1374.11
     66.1130	 1776.00	 1793.94	-1300.57	 1373.03
     66.1390	 1837.00	 1791.98	-1237.61	 1371.95
     66.1650	 1829.00	 1790.03	-1243.66	 1370.87
     66.1910	 1798.00	 1788.09	-1272.72	 1369.79
     66.2170	 1802.00	 1786.18	-1266.81	 1368.71
     66.2430	 1732.00	 1784.30	-1334.93	 1367.63
     66.2690	 1764.00	 1782.46	-1301.09	 1366.55
     66.2950	 1777.00	 1780.66	-1286.29	 1365.47
     66.3210	 1787.00	 1778.90	-1274.53	 1364.39
     66.3470	 1782.00	 1777.19	-1277.83	 1363.31
     66.3730	 1778.00	 1775.53	-1280.17	 1362.23
     66.3990	 1821.00	 1773.92	-1235.55	 1361.16
     66.4250	 1844.00	 1772.36	-1210.99	 1360.08
     66.4510	 1792.00	 1770.83	-1261.47	 1359.00
     66.4770	 1770.00	 1769.35	-1281.99	 1357.92
     66.5030	 1783.00	 1767.91	-1267.54	 1356.84
     66.5290	 1796.00	 1766.50	-1253.13	 1355.76
     66.5550	 1773.00	 1765.11	-1274.74	 1354.68
     66.5810	 1755.00	 1763.74	-1291.37	 1353.60
     66.6070	 1766.00	 1762.06	-1278.69	 1352.52
     66.6330	 1749.00	 1760.70	-1294.33	 1351.44
     66.6590	 1765.00	 1759.33	-1276.97	 1350.36
     66.6850	 1797.00	 1757.96	-1243.59	 1349.28
     66.7110	 1779.00	 1756.55	-1260.18	 1348.20
     66.7370	 1757.00	 1754.96	-1280.59	 1347.12
     66.7630	 1715.00	 1753.49	-1321.12	 1346.04
     66.7890	 1671.00	 1751.97	-1363.61	 1344.96
     66.8150	 1702.00	 1750.41	-1331.04	 1343.88
     66.8410	 1733.00	 1748.79	-1298.42	 1342.80
     66.8670	 1756.00	 1747.11	-1273.74	 1341.72
     66.8930	 1740.00	 1745.38	-1288.01	 1340.64
     66.9190	 1713.00	 1743.58	-1313.21	 1339.56
     66.9450	 1704.00	 1741.73	-1320.36	 1338.48
     66.9710	 1675.00	 1739.82	-1347.46	 1337.40
     66.9970	 1670.00	 1737.86	-1350.50	 1336.32
     67.0230	 1690.00	 1735.86	-1328.49	 1335.24
     67.0490	 1710.00	 1733.81	-1306.44	 1334.16
     67.0750	 1692.00	 1731.72	-1322.35	 1333.08
     67.1010	 1759.00	 1729.61	-1253.24	 1332.01
     67.1270	 1763.00	 1727.47	-1247.10	 1330.93
     67.1530	 1693.00	 1725.31	-1314.94	 1329.85
     67.1790	 1724.00	 1723.14	-1281.77	 1328.77
     67.2050	 1791.00	 1720.96	-1212.59	 1327.69
     67.2310	 1764.00	 1718.79	-1237.42	 1326.61
     67.2570	 1744.00	 1716.62	-1255.25	 1325.53
     67.2830	 1785.00	 1714.46	-1212.09	 1324.45
     67.3090	 1667.00	 1712.31	-1327.94	 1323.37
     67.3350	 1660.00	 1710.19	-1332.82	 1322.29
     67.3610	 1706.00	 1708.08	-1284.71	 1321.21
     67.3870	 1680.00	 1706.00	-1308.63	 1320.13
     67.4130	 1683.00	 1703.95	-1303.58	 1319.05
     67.4390	 1704.00	 1701.92	-1280.55	 1317.97
     67.4650	 1717.00	 1699.92	-1265.55	 1316.89
     67.4910	 1738.00	 1697.95	-1242.59	 1315.81
     67.5170	 1694.00	 1696.02	-1284.65	 1314.73
     67.5430	 1776.00	 1694.11	-1200.74	 1313.65
     67.5690	 1613.00	 1692.24	-1361.87	 1312.57
     67.5950	 1624.00	 1690.39	-1349.02	 1311.49
     67.6210	 1590.00	 1688.58	-1381.21	 1310.41
     67.6470	 1665.00	 1686.79	-1304.42	 1309.33
     67.6730	 1641.00	 1685.04	-1326.67	 1308.25
     67.6990	 1711.00	 1683.31	-1254.94	 1307.17
     67.7250	 1650.00	 1681.61	-1314.24	 1306.09
     67.7510	 1699.00	 1679.94	-1263.57	 1305.01
     67.7770	 1707.00	 1678.29	-1253.92	 1303.93
     67.8030	 1695.00	 1676.67	-1264.30	 1302.85
     67.8290	 1614.00	 1675.07	-1343.70	 1301.78
     67.8550	 1686.00	 1673.50	-1270.13	 1300.70
     67.8810	 1633.00	 1671.95	-1321.58	 1299.62
     67.9070	 1658.00	 1670.42	-1295.05	 1298.54
     67.9330	 1783.00	 1668.91	-1168.54	 1297.46
     67.9590	 1768.00	 1667.42	-1182.05	 1296.38
     67.9850	 1774.00	 1665.95	-1174.58	 1295.30
     68.0110	 1676.00	 1664.50	-1271.13	 1294.22
     68.0370	 1677.00	 1663.06	-1268.70	 1293.14
     68.0630	 1639.00	 1661.65	-1305.28	 1292.06
     68.0890	 1643.00	 1660.25	-1299.88	 1290.98
     68.1150	 1666.00	 1658.87	-1275.50	 1289.90
     68.1410	 1629.00	 1657.50	-1311.13	 1288.82
     68.1670	 1636.00	 1656.15	-1302.78	 1287.74
     68.1930	 1708.00	 1654.81	-1229.44	 1286.66
     68.2190	 1690.00	 1653.49	-1246.12	 1285.58
     68.2450	 1643.00	 1652.18	-1291.81	 1284.50
     68.2710	 1623.00	 1650.88	-1310.52	 1283.42
     68.2970	 1651.00	 1649.60	-1281.23	 1282.34
     68.3230	 1670.00	 1648.33	-1260.96	 1281.26
     68.3490	 1600.00	 1647.07	-1329.70	 1280.18
     68.3750	 1707.00	 1645.83	-1221.46	 1279.10
     68.4010	 1744.00	 1644.59	-1183.22	 1278.02
     68.4270	 1684.00	 1643.37	-1242.00	 1276.94
     68.4530	 1673.00	 1642.16	-1251.79	 1275.86
     68.4790	 1677.00	 1640.96	-1246.59	 1274.78
     68.5050	 1619.00	 1639.77	-1303.40	 1273.70
     68.5310	 1670.00	 1638.59	-1251.22	 1272.63
     68.5570	 1754.00	 1637.42	-1166.05	 1271.55
     68.5830	 1633.00	 1636.26	-1285.89	 1270.47
     68.6090	 1563.00	 1635.11	-1354.74	 1269.39
     68.6350	 1620.00	 1633.97	-1296.60	 1268.31
     68.6610	 1671.00	 1632.85	-1244.48	 1267.23
     68.6870	 1653.00	 1631.73	-1261.36	 1266.15
     68.7130	 1669.00	 1630.62	-1244.25	 1265.07
     68.7390	 1605.00	 1629.52	-1307.15	 1263.99
     68.7650	 1631.00	 1628.44	-1280.07	 1262.91
     68.7910	 1622.00	 1627.36	-1287.99	 1261.83
     68.8170	 1584.00	 1626.29	-1324.92	 1260.75
     68.8430	 1643.00	 1625.23	-1264.87	 1259.67
     68.8690	 1660.00	 1624.19	-1246.82	 1258.59
     68.8950	 1611.00	 1623.15	-1294.78	 1257.51
     68.9210	 1604.00	 1622.12	-1300.76	 1256.43
     68.9470	 1616.00	 1621.11	-1287.74	 1255.35
     68.9730	 1630.00	 1620.10	-1272.74	 1254.27
     68.9990	 1650.00	 1619.11	-1251.74	 1253.19
     69.0250	 1640.00	 1618.13	-1260.76	 1252.11
     69.0510	 1621.00	 1617.16	-1278.79	 1251.03
     69.0770	 1644.00	 1616.20	-1254.83	 1249.95
     69.1030	 1621.00	 1615.25	-1276.88	 1248.87
     69.1290	 1583.00	 1614.31	-1313.95	 1247.79
     69.1550	 1587.00	 1613.39	-1309.02	 1246.71
     69.1810	 1607.00	 1612.48	-1288.11	 1245.63
     69.2070	 1620.00	 1611.58	-1274.21	 1244.55
     69.2330	 1630.00	 1610.70	-1263.33	 1243.47
     69.2590	 1625.00	 1609.83	-1267.46	 1242.40
     69.2850	 1634.00	 1608.97	-1257.60	 1241.32
     69.3110	 1661.00	 1608.13	-1229.76	 1240.24
     69.3370	 1643.00	 1607.30	-1246.93	 1239.16
     69.3630	 1633.00	 1606.49	-1256.12	 1238.08
     69.3890	 1589.00	 1605.70	-1299.33	 1237.00
     69.4150	 1561.00	 1604.92	-1326.55	 1235.92
     69.4410	 1616.00	 1604.16	-1270.79	 1234.84
     69.4670	 1642.00	 1603.42	-1244.05	 1233.76
     69.4930	 1637.00	 1602.70	-1248.33	 1232.68
     69.5190	 1585.00	 1601.99	-1299.63	 1231.60
     69.5450	 1574.00	 1601.31	-1309.94	 1230.52
     69.5710	 1579.00	 1600.65	-1304.28	 1229.44
     69.5970	 1600.00	 1600.01	-1282.65	 1228.36
     69.6230	 1614.00	 1599.40	-1268.03	 1227.28
     69.6490	 1648.00	 1598.81	-1233.44	 1226.20
     69.6750	 1645.00	 1598.24	-1235.88	 1225.12
     69.7010	 1641.00	 1597.71	-1239.34	 1224.04
     69.7270	 1631.00	 1597.19	-1248.83	 1222.96
     69.7530	 1627.00	 1596.71	-1252.35	 1221.88
     69.7790	 1602.00	 1596.26	-1276.89	 1220.80
     69.8050	 1600.00	 1595.84	-1278.48	 1219.72
     69.8310	 1559.00	 1595.46	-1319.09	 1218.64
     69.8570	 1620.00	 1595.11	-1257.74	 1217.56
     69.8830	 1625.00	 1594.79	-1252.42	 1216.48
     69.9090	 1610.00	 1594.52	-1267.15	 1215.40
     69.9350	 1661.00	 1594.28	-1215.91	 1214.32
     69.9610	 1680.00	 1594.09	-1196.72	 1213.25
     69.9870	 1607.00	 1593.94	-1269.57	 1212.17
     70.0130	 1647.00	 1593.83	-1229.46	 1211.09
     70.0390	 1607.00	 1593.77	-1269.41	 1210.01
     70.0650	 1595.00	 1593.77	-1281.40	 1208.93
     70.0910	 1583.00	 1593.81	-1293.44	 1207.85
     70.1170	 1599.00	 1593.91	-1277.54	 1206.77
     70.1430	 1564.00	 1594.06	-1312.69	 1205.69
     70.1690	 1629.00	 1594.27	-1247.90	 1204.61
     70.1950	 1599.00	 1594.54	-1278.17	 1203.53
     70.2210	 1657.00	 1594.87	-1220.50	 1202.45
     70.2470	 1656.00	 1595.26	-1221.89	 1201.37
     70.2730	 1610.00	 1595.72	-1268.35	 1200.29
     70.2990	 1614.00	 1596.24	-1264.87	 1199.21
     70.3250	 1552.00	 1596.82	-1327.45	 1198.13
     70.3510	 1608.00	 1597.47	-1272.10	 1197.05
     70.3770	 1574.00	 1598.18	-1306.81	 1195.97
     70.4030	 1614.00	 1599.29	-1267.92	 1195.22
     70.4290	 1550.00	 1600.73	-1333.36	 1194.75
     70.4550	 1667.00	 1602.23	-1217.86	 1194.27
     70.4810	 1522.00	 1603.78	-1364.41	 1193.80
     70.5070	 1711.00	 1605.37	-1177.01	 1193.32
     70.5330	 1645.00	 1607.01	-1244.64	 1192.85
     70.5590	 1648.00	 1608.68	-1243.31	 1192.37
     70.5850	 1624.00	 1610.38	-1269.01	 1191.89
     70.6110	 1594.00	 1612.08	-1300.71	 1191.42
     70.6370	 1601.00	 1613.78	-1295.41	 1190.94
     70.6630	 1593.00	 1615.47	-1305.10	 1190.47
     70.6890	 1658.00	 1617.12	-1241.75	 1189.99
     70.7150	 1605.00	 1618.72	-1296.35	 1189.52
     70.7410	 1601.00	 1620.25	-1301.88	 1189.04
     70.7670	 1594.00	 1621.70	-1310.33	 1188.57
     70.7930	 1597.00	 1623.03	-1308.66	 1188.09
     70.8190	 1577.00	 1624.24	-1329.87	 1187.61
     70.8450	 1540.00	 1625.30	-1367.93	 1187.14
     70.8710	 1598.00	 1626.19	-1310.83	 1186.66
     70.8970	 1575.00	 1626.91	-1334.54	 1186.19
     70.9230	 1654.00	 1627.42	-1256.06	 1185.71
     70.9490	 1595.00	 1627.73	-1315.37	 1185.24
     70.9750	 1592.00	 1627.83	-1318.46	 1184.76
     71.0010	 1615.00	 1627.70	-1295.33	 1184.29
     71.0270	 1570.00	 1627.35	-1339.98	 1183.81
     71.0530	 1658.00	 1626.73	-1251.36	 1183.33
     71.0790	 1579.00	 1625.94	-1329.57	 1182.86
     71.1050	 1637.00	 1624.93	-1270.56	 1182.38
     71.1310	 1547.00	 1623.73	-1359.36	 1181.91
     71.1570	 1580.00	 1622.34	-1324.97	 1181.43
     71.1830	 1589.00	 1620.75	-1314.39	 1180.96
     71.2090	 1579.00	 1619.04	-1322.67	 1180.48
     71.2350	 1634.00	 1617.18	-1265.81	 1180.01
     71.2610	 1593.00	 1615.21	-1304.84	 1179.53
     71.2870	 1616.00	 1613.13	-1279.76	 1179.05
     71.3130	 1627.00	 1610.98	-1266.61	 1178.58
     71.3390	 1634.00	 1608.76	-1257.40	 1178.10
     71.3650	 1634.00	 1606.50	-1255.14	 1177.63
     71.3910	 1562.00	 1604.22	-1324.85	 1177.15
     71.4170	 1567.00	 1601.92	-1317.55	 1176.68
     71.4430	 1599.00	 1599.62	-1283.25	 1176.20
     71.4690	 1588.00	 1597.34	-1291.97	 1175.72
     71.4950	 1567.00	 1595.08	-1310.71	 1175.25
     71.5210	 1569.00	 1592.86	-1306.50	 1174.77
     71.5470	 1575.00	 1590.69	-1298.32	 1174.30
     71.5730	 1537.00	 1588.57	-1334.20	 1173.82
     71.5990	 1541.00	 1586.50	-1328.13	 1173.35
     71.6250	 1564.00	 1584.50	-1303.13	 1172.87
     71.6510	 1584.00	 1582.56	-1281.19	 1172.40
     71.6770	 1570.00	 1580.69	-1293.32	 1171.92
     71.7030	 1546.00	 1578.89	-1315.52	 1171.44
     71.7290	 1531.00	 1577.16	-1328.79	 1170.97
     71.7550	 1532.00	 1575.50	-1326.13	 1170.49
     71.7810	 1552.00	 1573.92	-1304.55	 1170.02
     71.8070	 1565.00	 1572.41	-1290.04	 1169.54
     71.8330	 1581.00	 1570.97	-1272.60	 1169.07
     71.8590	 1564.00	 1569.60	-1288.23	 1168.59
     71.8850	 1561.00	 1568.29	-1289.93	 1168.12
     71.9110	 1607.00	 1567.06	-1242.69	 1167.64
     71.9370	 1615.00	 1565.90	-1233.53	 1167.16
     71.9630	 1567.00	 1564.80	-1280.43	 1166.69
     71.9890	 1584.00	 1563.77	-1262.40	 1166.21
     72.0150	 1613.00	 1562.80	-1232.43	 1165.74
     72.0410	 1535.00	 1561.89	-1309.52	 1165.26
     72.0670	 1490.00	 1561.04	-1353.67	 1164.79
     72.0930	 1484.00	 1560.26	-1358.89	 1164.31
     72.1190	 1538.00	 1559.53	-1304.16	 1163.84
     72.1450	 1542.00	 1558.86	-1299.49	 1163.36
     72.1710	 1556.00	 1558.25	-1284.88	 1162.88
     72.1970	 1565.00	 1557.69	-1275.32	 1162.41
     72.2230	 1548.00	 1557.19	-1291.82	 1161.93
     72.2490	 1549.00	 1556.74	-1290.37	 1161.46
     72.2750	 1558.00	 1556.35	-1280.98	 1160.98
     72.3010	 1504.00	 1556.02	-1334.65	 1160.51
     72.3270	 1539.00	 1555.73	-1299.37	 1160.03
     72.3530	 1598.00	 1555.51	-1240.14	 1159.56
     72.3790	 1600.00	 1555.33	-1237.97	 1159.08
     72.4050	 1558.00	 1555.22	-1279.85	 1158.60
     72.4310	 1534.00	 1555.15	-1303.79	 1158.13
     72.4570	 1571.00	 1555.15	-1266.78	 1157.65
     72.4830	 1556.00	 1555.20	-1281.83	 1157.18
     72.5090	 1542.00	 1555.30	-1295.93	 1156.70
     72.5350	 1569.00	 1555.47	-1269.10	 1156.23
     72.5610	 1565.00	 1555.69	-1273.32	 1155.75
     72.5870	 1558.00	 1555.97	-1280.61	 1155.28
     72.6130	 1561.00	 1556.32	-1277.95	 1154.80
     72.6390	 1572.00	 1556.73	-1267.36	 1154.32
     72.6650	 1524.00	 1557.20	-1315.83	 1153.85
     72.6910	 1577.00	 1557.74	-1263.37	 1153.37
     72.7170	 1570.00	 1558.35	-1270.98	 1152.90
     72.7430	 1570.00	 1559.03	-1271.66	 1152.42
     72.7690	 1626.00	 1559.78	-1216.41	 1151.95
     72.7950	 1637.00	 1560.61	-1206.24	 1151.47
     72.8210	 1605.00	 1561.52	-1239.15	 1151.00
     72.8470	 1666.00	 1562.51	-1179.14	 1150.52
     72.8730	 1683.00	 1563.58	-1163.21	 1150.04
     72.8990	 1601.00	 1564.74	-1246.37	 1149.57
     72.9250	 1555.00	 1565.99	-1293.62	 1149.09
     72.9510	 1645.00	 1567.34	-1204.97	 1148.62
     72.9770	 1588.00	 1568.78	-1263.41	 1148.14
     73.0030	 1547.00	 1570.33	-1305.96	 1147.67
     73.0290	 1599.00	 1571.98	-1255.61	 1147.19
     73.0550	 1587.00	 1573.74	-1269.37	 1146.72
     73.0810	 1550.00	 1575.62	-1308.25	 1146.24
     73.1070	 1637.00	 1577.61	-1223.24	 1145.76
     73.1330	 1596.00	 1579.73	-1266.36	 1145.29
     73.1590	 1673.00	 1581.97	-1191.60	 1144.81
     73.1850	 1646.00	 1584.34	-1220.98	 1144.34
     73.2110	 1588.00	 1586.85	-1281.48	 1143.86
     73.2370	 1527.00	 1589.50	-1345.13	 1143.39
     73.2630	 1656.00	 1592.29	-1218.92	 1142.91
     73.2890	 1556.00	 1595.23	-1321.86	 1142.43
     73.3150	 1607.00	 1598.31	-1273.94	 1141.96
     73.3410	 1586.00	 1601.54	-1298.17	 1141.48
     73.3670	 1606.00	 1604.92	-1281.56	 1141.01
     73.3930	 1644.00	 1608.46	-1247.09	 1140.53
     73.4190	 1642.00	 1612.14	-1252.77	 1140.06
     73.4450	 1694.00	 1615.96	-1204.60	 1139.58
     73.4710	 1645.00	 1619.93	-1257.56	 1139.11
     73.4970	 1679.00	 1624.03	-1227.67	 1138.63
     73.5230	 1676.00	 1628.26	-1234.89	 1138.15
     73.5490	 1600.00	 1632.60	-1315.23	 1137.68
     73.5750	 1615.00	 1637.04	-1304.68	 1137.20
     73.6010	 1605.00	 1641.57	-1319.20	 1136.73
     73.6270	 1651.00	 1646.15	-1277.78	 1136.25
     73.6530	 1656.00	 1650.78	-1277.41	 1135.78
     73.6790	 1678.00	 1655.42	-1260.05	 1135.30
     73.7050	 1635.00	 1660.04	-1307.67	 1134.83
     73.7310	 1665.00	 1664.62	-1282.25	 1134.35
     73.7570	 1623.00	 1669.11	-1328.74	 1133.87
     73.7830	 1586.00	 1673.48	-1370.11	 1133.40
     73.8090	 1568.00	 1677.70	-1392.33	 1132.92
     73.8350	 1571.00	 1681.72	-1393.36	 1132.45
     73.8610	 1678.00	 1685.52	-1290.15	 1131.97
     73.8870	 1670.00	 1689.05	-1301.68	 1131.50
     73.9130	 1681.00	 1692.28	-1293.91	 1131.02
     73.9390	 1614.00	 1695.18	-1363.81	 1130.55
     73.9650	 1615.00	 1697.73	-1365.36	 1130.07
     73.9910	 1652.00	 1699.91	-1330.54	 1129.59
     74.0170	 1626.00	 1701.70	-1358.33	 1129.12
     74.0430	 1687.00	 1703.10	-1298.73	 1128.64
     74.0690	 1687.00	 1704.11	-1299.74	 1128.17
     74.0950	 1628.00	 1704.73	-1359.36	 1127.69
     74.1210	 1680.00	 1704.97	-1307.61	 1127.22
     74.1470	 1698.00	 1704.86	-1289.49	 1126.74
     74.1730	 1680.00	 1704.42	-1307.05	 1126.27
     74.1990	 1692.00	 1703.67	-1294.30	 1125.79
     74.2250	 1699.00	 1702.65	-1286.28	 1125.31
     74.2510	 1710.00	 1701.40	-1274.03	 1124.84
     74.2770	 1705.00	 1699.94	-1277.57	 1124.36
     74.3030	 1682.00	 1698.32	-1298.95	 1123.89
     74.3290	 1640.00	 1696.57	-1339.21	 1123.41
     74.3550	 1701.00	 1694.74	-1276.38	 1122.94
     74.3810	 1712.00	 1692.86	-1263.49	 1122.46
     74.4070	 1677.00	 1690.97	-1296.60	 1121.99
     74.4330	 1709.00	 1689.08	-1262.72	 1121.51
     74.4590	 1693.00	 1687.24	-1276.88	 1121.03
     74.4850	 1653.00	 1685.47	-1315.10	 1120.56
     74.5110	 1673.00	 1683.78	-1293.41	 1120.08
     74.5370	 1714.00	 1682.18	-1250.81	 1119.61
     74.5630	 1714.00	 1680.69	-1249.33	 1119.13
     74.5890	 1681.00	 1679.32	-1280.95	 1118.66
     74.6150	 1629.00	 1678.05	-1331.69	 1118.18
     74.6410	 1620.00	 1676.89	-1339.53	 1117.71
     74.6670	 1632.00	 1675.83	-1326.46	 1117.23
     74.6930	 1646.00	 1674.84	-1311.48	 1116.75
     74.7190	 1631.00	 1673.92	-1325.55	 1116.28
     74.7450	 1576.00	 1673.04	-1379.67	 1115.80
     74.7710	 1628.00	 1672.16	-1326.80	 1115.33
     74.7970	 1648.00	 1671.28	-1305.91	 1114.85
     74.8230	 1658.00	 1670.34	-1294.98	 1114.38
     74.8490	 1690.00	 1669.34	-1261.97	 1113.90
     74.8750	 1627.00	 1668.22	-1323.85	 1113.43
     74.9010	 1642.00	 1666.97	-1307.60	 1112.95
     74.9270	 1640.00	 1665.55	-1308.19	 1112.47
     74.9530	 1631.00	 1663.95	-1315.58	 1112.00
     74.9790	 1615.00	 1662.13	-1329.76	 1111.52
     75.0050	 1622.00	 1660.08	-1320.72	 1111.05
     75.0310	 1598.00	 1657.79	-1342.43	 1110.57
     75.0570	 1637.00	 1655.25	-1300.88	 1110.10
     75.0830	 1595.00	 1652.45	-1340.08	 1109.62
     75.1090	 1598.00	 1649.39	-1334.02	 1109.15
     75.1350	 1603.00	 1646.09	-1325.72	 1108.67
     75.1610	 1612.00	 1642.54	-1313.17	 1108.19
     75.1870	 1649.00	 1638.76	-1272.39	 1107.72
     75.2130	 1601.00	 1634.77	-1316.40	 1107.24
     75.2390	 1556.00	 1630.59	-1357.22	 1106.77
     75.2650	 1589.00	 1626.24	-1319.87	 1106.29
     75.2910	 1574.00	 1621.74	-1330.37	 1105.82
     75.3170	 1618.00	 1617.13	-1281.76	 1105.34
     75.3430	 1595.00	 1612.41	-1300.04	 1104.86
     75.3690	 1563.00	 1607.63	-1327.26	 1104.39
     75.3950	 1562.00	 1602.80	-1323.43	 1103.91
     75.4210	 1574.00	 1597.94	-1306.57	 1103.44
     75.4470	 1606.00	 1593.09	-1269.72	 1102.96
     75.4730	 1622.00	 1588.25	-1248.88	 1102.49
     75.4990	 1608.00	 1583.45	-1258.08	 1102.01
     75.5250	 1538.00	 1578.71	-1323.34	 1101.54
     75.5510	 1489.00	 1574.03	-1367.66	 1101.06
     75.5770	 1558.00	 1569.44	-1294.07	 1100.58
     75.6030	 1550.00	 1564.93	-1297.56	 1100.11
     75.6290	 1515.00	 1560.53	-1328.16	 1099.63
     75.6550	 1506.00	 1556.24	-1332.87	 1099.16
     75.6810	 1521.00	 1552.05	-1313.68	 1098.68
     75.7070	 1615.00	 1547.99	-1215.62	 1098.21
     75.7330	 1581.00	 1544.04	-1245.67	 1097.73
     75.7590	 1581.00	 1540.21	-1241.84	 1097.26
     75.7850	 1519.00	 1536.50	-1300.14	 1096.78
     75.8110	 1542.00	 1532.92	-1273.55	 1096.30
     75.8370	 1515.00	 1529.45	-1297.08	 1095.83
     75.8630	 1525.00	 1526.10	-1283.73	 1095.35
     75.8890	 1533.00	 1522.86	-1272.50	 1094.88
     75.9150	 1530.00	 1519.74	-1272.37	 1094.40
     75.9410	 1537.00	 1516.73	-1262.36	 1093.93
     75.9670	 1612.00	 1513.82	-1184.45	 1093.45
     75.9930	 1606.00	 1511.01	-1187.64	 1092.98
     76.0190	 1553.00	 1508.30	-1237.93	 1092.50
     76.0450	 1524.00	 1505.69	-1264.32	 1092.02
     76.0710	 1524.00	 1503.17	-1261.80	 1091.55
     76.0970	 1542.00	 1500.74	-1241.37	 1091.07
     76.1230	 1529.00	 1498.39	-1252.02	 1090.60
     76.1490	 1541.00	 1496.12	-1237.76	 1090.12
     76.1750	 1469.00	 1493.94	-1307.57	 1089.65
     76.2010	 1518.00	 1491.83	-1256.46	 1089.17
     76.2270	 1538.00	 1489.78	-1234.42	 1088.70
     76.2530	 1507.00	 1487.81	-1263.45	 1088.22
     76.2790	 1467.00	 1485.91	-1301.54	 1087.74
     76.3050	 1538.00	 1484.07	-1228.70	 1087.27
     76.3310	 1466.00	 1482.28	-1298.92	 1086.79
     76.3570	 1507.00	 1480.56	-1256.19	 1086.32
     76.3830	 1530.00	 1478.89	-1231.53	 1085.84
     76.4090	 1571.00	 1477.28	-1188.91	 1085.37
     76.4350	 1545.00	 1475.72	-1213.35	 1084.89
     76.4610	 1509.00	 1474.20	-1247.84	 1084.42
     76.4870	 1481.00	 1472.74	-1274.37	 1083.94
     76.5130	 1493.00	 1471.32	-1260.95	 1083.46
     76.5390	 1456.00	 1469.94	-1296.57	 1082.99
     76.5650	 1480.00	 1468.60	-1271.24	 1082.51
     76.5910	 1489.00	 1467.31	-1260.94	 1082.04
     76.6170	 1483.00	 1466.05	-1265.69	 1081.56
     76.6430	 1469.00	 1464.84	-1278.47	 1081.09
     76.6690	 1443.00	 1463.66	-1303.29	 1080.61
     76.6950	 1475.00	 1462.51	-1270.14	 1080.14
     76.7210	 1546.00	 1461.40	-1198.03	 1079.66
     76.7470	 1514.00	 1460.32	-1228.95	 1079.18
     76.7730	 1469.00	 1459.27	-1272.90	 1078.71
     76.7990	 1458.00	 1458.26	-1282.89	 1078.23
     76.8250	 1463.00	 1457.27	-1276.90	 1077.76
     76.8510	 1467.00	 1456.32	-1271.95	 1077.28
     76.8770	 1479.00	 1455.39	-1259.02	 1076.81
     76.9030	 1507.00	 1454.49	-1230.12	 1076.33
     76.9290	 1517.00	 1453.62	-1219.25	 1075.86
     76.9550	 1478.00	 1452.78	-1257.41	 1075.38
     76.9810	 1481.00	 1451.96	-1253.59	 1074.90
     77.0070	 1469.00	 1451.17	-1264.80	 1074.43
     77.0330	 1470.00	 1450.40	-1263.03	 1073.95
     77.0590	 1469.00	 1449.66	-1263.29	 1073.48
     77.0850	 1490.00	 1448.95	-1241.58	 1073.00
     77.1110	 1504.00	 1448.26	-1226.89	 1072.53
     77.1370	 1468.00	 1447.59	-1262.23	 1072.05
     77.1630	 1451.00	 1446.96	-1278.59	 1071.57
     77.1890	 1438.00	 1446.34	-1290.97	 1071.10
     77.2150	 1516.00	 1445.75	-1212.38	 1070.62
     77.2410	 1512.00	 1445.19	-1215.82	 1070.15
     77.2670	 1444.00	 1444.64	-1283.27	 1069.67
     77.2930	 1440.00	 1443.94	-1286.57	 1069.01
     77.3190	 1412.00	 1443.27	-1313.90	 1068.35
     77.3450	 1453.00	 1442.62	-1272.25	 1067.69
     77.3710	 1478.00	 1442.00	-1246.63	 1067.03
     77.3970	 1463.00	 1441.40	-1261.03	 1066.37
     77.4230	 1431.00	 1440.83	-1292.46	 1065.71
     77.4490	 1416.00	 1440.29	-1306.92	 1065.05
     77.4750	 1467.00	 1439.77	-1255.41	 1064.40
     77.5010	 1453.00	 1439.29	-1268.92	 1063.74
     77.5270	 1425.00	 1438.83	-1296.46	 1063.08
     77.5530	 1430.00	 1438.40	-1291.03	 1062.42
     77.5790	 1452.00	 1438.00	-1268.63	 1061.76
     77.6050	 1472.00	 1437.63	-1248.26	 1061.10
     77.6310	 1463.00	 1437.30	-1256.93	 1060.44
     77.6570	 1471.00	 1436.99	-1248.63	 1059.79
     77.6830	 1546.00	 1436.72	-1173.36	 1059.13
     77.7090	 1407.00	 1436.49	-1312.12	 1058.47
     77.7350	 1412.00	 1436.29	-1306.92	 1057.81
     77.7610	 1458.00	 1436.13	-1260.76	 1057.15
     77.7870	 1449.00	 1436.01	-1269.64	 1056.49
     77.8130	 1414.00	 1435.93	-1304.56	 1055.83
     77.8390	 1443.00	 1435.89	-1275.52	 1055.17
     77.8650	 1402.00	 1435.89	-1316.52	 1054.52
     77.8910	 1430.00	 1435.93	-1288.57	 1053.86
     77.9170	 1437.00	 1436.03	-1281.66	 1053.20
     77.9430	 1463.00	 1436.17	-1255.80	 1052.54
     77.9690	 1457.00	 1436.36	-1261.99	 1051.88
     77.9950	 1508.00	 1436.47	-1211.10	 1051.22
     78.0210	 1470.00	 1436.76	-1249.39	 1050.56
     78.0470	 1427.00	 1437.11	-1292.74	 1049.90
     78.0730	 1495.00	 1437.52	-1225.15	 1049.25
     78.0990	 1472.00	 1437.98	-1248.61	 1048.59
     78.1250	 1458.00	 1438.51	-1263.14	 1047.93
     78.1510	 1491.00	 1439.03	-1230.66	 1047.27
     78.1770	 1466.00	 1439.68	-1256.31	 1046.61
     78.2030	 1465.00	 1440.39	-1258.02	 1045.95
     78.2290	 1410.00	 1441.17	-1313.80	 1045.29
     78.2550	 1504.00	 1442.02	-1220.65	 1044.63
     78.2810	 1455.00	 1442.93	-1270.56	 1043.98
     78.3070	 1587.00	 1443.91	-1139.54	 1043.32
     78.3330	 1492.00	 1444.95	-1235.58	 1042.66
     78.3590	 1487.00	 1446.06	-1241.69	 1042.00
     78.3850	 1415.00	 1447.23	-1314.86	 1041.34
     78.4110	 1464.00	 1448.47	-1267.10	 1040.68
     78.4370	 1485.00	 1449.76	-1247.39	 1040.02
     78.4630	 1482.00	 1451.10	-1251.73	 1039.37
     78.4890	 1442.00	 1452.49	-1293.12	 1038.71
     78.5150	 1500.00	 1453.91	-1236.54	 1038.05
     78.5410	 1465.00	 1455.37	-1273.00	 1037.39
     78.5670	 1462.00	 1456.85	-1277.48	 1036.73
     78.5930	 1427.00	 1458.34	-1313.97	 1036.07
     78.6190	 1469.00	 1459.82	-1273.45	 1035.41
     78.6450	 1505.00	 1461.29	-1238.92	 1034.75
     78.6710	 1529.00	 1462.72	-1216.35	 1034.10
     78.6970	 1433.00	 1464.11	-1313.74	 1033.44
     78.7230	 1462.00	 1465.42	-1286.05	 1032.78
     78.7490	 1452.00	 1466.65	-1297.28	 1032.12
     78.7750	 1463.00	 1467.77	-1287.41	 1031.46
     78.8010	 1469.00	 1468.77	-1282.40	 1030.80
     78.8270	 1446.00	 1469.63	-1306.26	 1030.14
     78.8530	 1475.00	 1470.32	-1277.95	 1029.48
     78.8790	 1470.00	 1470.83	-1283.46	 1028.83
     78.9050	 1433.00	 1471.15	-1320.79	 1028.17
     78.9310	 1460.00	 1471.27	-1293.90	 1027.51
     78.9570	 1460.00	 1471.17	-1293.80	 1026.85
     78.9830	 1463.00	 1470.84	-1290.48	 1026.19
     79.0090	 1458.00	 1470.29	-1294.92	 1025.53
     79.0350	 1450.00	 1469.51	-1302.14	 1024.87
     79.0610	 1448.00	 1468.50	-1303.13	 1024.22
     79.0870	 1423.00	 1467.26	-1326.89	 1023.56
     79.1130	 1491.00	 1465.80	-1257.43	 1022.90
     79.1390	 1435.00	 1464.14	-1311.77	 1022.24
     79.1650	 1397.00	 1462.27	-1347.91	 1021.58
     79.1910	 1425.00	 1460.23	-1317.86	 1020.92
     79.2170	 1402.00	 1458.01	-1338.64	 1020.26
     79.2430	 1407.00	 1455.64	-1331.27	 1019.60
     79.2690	 1413.00	 1453.14	-1322.77	 1018.95
     79.2950	 1441.00	 1450.51	-1292.15	 1018.29
     79.3210	 1456.00	 1447.79	-1274.42	 1017.63
     79.3470	 1406.00	 1444.98	-1321.61	 1016.97
     79.3730	 1389.00	 1442.11	-1335.74	 1016.31
     79.3990	 1399.00	 1439.18	-1322.82	 1015.65
     79.4250	 1388.00	 1436.23	-1330.86	 1014.99
     79.4510	 1414.00	 1433.25	-1301.88	 1014.33
     79.4770	 1435.00	 1430.27	-1277.90	 1013.68
     79.5030	 1379.00	 1427.29	-1330.92	 1013.02
     79.5290	 1326.00	 1424.33	-1380.96	 1012.36
     79.5550	 1372.00	 1421.39	-1332.02	 1011.70
     79.5810	 1362.00	 1418.49	-1339.12	 1011.04
     79.6070	 1374.00	 1415.63	-1324.27	 1010.38
     79.6330	 1407.00	 1412.82	-1288.45	 1009.72
     79.6590	 1387.00	 1410.06	-1305.69	 1009.06
     79.6850	 1369.00	 1407.36	-1320.99	 1008.41
     79.7110	 1369.00	 1404.90	-1318.53	 1007.94
     79.7370	 1360.00	 1402.97	-1325.61	 1007.94
     79.7630	 1348.00	 1401.11	-1335.74	 1007.94
     79.7890	 1358.00	 1399.31	-1323.94	 1007.94
     79.8150	 1353.00	 1397.57	-1327.20	 1007.94
     79.8410	 1392.00	 1395.89	-1286.52	 1007.94
     79.8670	 1399.00	 1394.27	-1277.90	 1007.94
     18.2892	        	        	        	        	       0	(  1  1  1)	  0  1
     18.3355	        	        	        	        	       0	(  1  1  1)	  0  2
     30.0839	        	        	        	        	       0	(  2  2  0)	  0  1
     30.1612	        	        	        	        	       0	(  2  2  0)	  0  2
     35.4347	        	        	        	        	       0	(  3  1  1)	  0  1
     35.5266	        	        	        	        	       0	(  3  1  1)	  0  2
     37.0663	        	        	        	        	       0	(  2  2  2)	  0  1
     37.1627	        	        	        	        	       0	(  2  2  2)	  0  2
     43.0646	        	        	        	        	       0	(  4  0  0)	  0  1
     43.1781	        	        	        	        	       0	(  4  0  0)	  0  2
     47.1510	        	        	        	        	       0	(  3  3  1)	  0  1
     47.2765	        	        	        	        	       0	(  3  3  1)	  0  2
     53.4248	        	        	        	        	       0	(  4  2  2)	  0  1
     53.5696	        	        	        	        	       0	(  4  2  2)	  0  2
     56.9506	        	        	        	        	       0	(  5  1  1)	  0  1
     56.9506	        	        	        	        	       0	(  3  3  3)	  0  1
     57.1067	        	        	        	        	       0	(  5  1  1)	  0  2
     57.1067	        	        	        	        	       0	(  3  3  3)	  0  2
     62.5374	        	        	        	        	       0	(  4  4  0)	  0  1
     62.7121	        	        	        	        	       0	(  4  4  0)	  0  2
     65.7541	        	        	        	        	       0	(  5  3  1)	  0  1
     65.9401	        	        	        	        	       0	(  5  3  1)	  0  2
     66.8079	        	        	        	        	       0	(  4  4  2)	  0  1
     66.9976	        	        	        	        	       0	(  4  4  2)	  0  2
     70.9459	        	        	        	        	       0	(  6  2  0)	  0  1
     71.1509	        	        	        	        	       0	(  6  2  0)	  0  2
     73.9816	        	        	        	        	       0	(  5  3  3)	  0  1
     74.1984	        	        	        	        	       0	(  5  3  3)	  0  2
     74.9829	        	        	        	        	       0	(  6  2  2)	  0  1
     75.2036	        	        	        	        	       0	(  6  2  2)	  0  2
     78.9449	        	        	        	        	       0	(  4  4  4)	  0  1
     79.1819	        	        	        	        	       0	(  4  4  4)	  0  2
