 DD144    CELL:    8.38412   8.38412   8.38412   90.0000   90.0000   90.0000   SPGR: F d -3 m               TEMP:      0.00
  2   2495     1.54056     1.54443     0.00000     0.00000     0.00000    0
    32    10     0     0     0
 2Theta	Yobs	Ycal	Yobs-Ycal	Backg	Posr	(hkl)	K
     15.0230	 3588.00	 3614.51	-1690.01	 3099.41
     15.0490	 3570.00	 3616.17	-1709.67	 3100.90
     15.0750	 3597.00	 3617.84	-1684.34	 3102.40
     15.1010	 3647.00	 3619.52	-1636.02	 3103.90
     15.1270	 3609.00	 3621.19	-1675.69	 3105.39
     15.1530	 3560.00	 3622.87	-1726.37	 3106.89
     15.1790	 3699.00	 3624.55	-1589.05	 3108.39
     15.2050	 3658.00	 3626.24	-1631.74	 3109.88
     15.2310	 3594.00	 3627.93	-1697.43	 3111.38
     15.2570	 3643.00	 3629.62	-1650.12	 3112.88
     15.2830	 3669.00	 3631.32	-1625.82	 3114.37
     15.3090	 3684.00	 3633.02	-1612.52	 3115.87
     15.3350	 3578.00	 3634.73	-1720.23	 3117.37
     15.3610	 3655.00	 3636.44	-1644.94	 3118.86
     15.3870	 3606.00	 3638.15	-1695.65	 3120.36
     15.4130	 3766.00	 3639.87	-1537.37	 3121.86
     15.4390	 3682.00	 3641.59	-1623.09	 3123.35
     15.4650	 3550.00	 3643.32	-1756.82	 3124.85
     15.4910	 3619.00	 3645.05	-1689.55	 3126.35
     15.5170	 3576.00	 3646.79	-1734.29	 3127.84
     15.5430	 3556.00	 3648.53	-1756.03	 3129.34
     15.5690	 3663.00	 3650.28	-1650.78	 3130.84
     15.5950	 3697.00	 3652.04	-1618.54	 3132.33
     15.6210	 3737.00	 3653.79	-1580.29	 3133.83
     15.6470	 3801.00	 3655.56	-1518.06	 3135.33
     15.6730	 3611.00	 3657.33	-1709.83	 3136.82
     15.6990	 3662.00	 3659.11	-1660.61	 3138.32
     15.7250	 3805.00	 3660.89	-1519.39	 3139.82
     15.7510	 3749.00	 3662.68	-1577.18	 3141.31
     15.7770	 3762.00	 3664.48	-1565.98	 3142.81
     15.8030	 3776.00	 3666.29	-1553.79	 3144.31
     15.8290	 3683.00	 3668.10	-1648.60	 3145.80
     15.8550	 3766.00	 3669.92	-1567.42	 3147.30
     15.8810	 3744.00	 3671.74	-1591.24	 3148.80
     15.9070	 3755.00	 3673.58	-1582.08	 3150.29
     15.9330	 3640.00	 3675.42	-1698.92	 3151.79
     15.9590	 3674.00	 3677.28	-1666.78	 3153.29
     15.9850	 3701.00	 3679.14	-1641.64	 3154.78
     16.0110	 3729.00	 3681.01	-1615.51	 3156.28
     16.0370	 3660.00	 3682.89	-1686.39	 3157.78
     16.0630	 3715.00	 3684.78	-1633.28	 3159.27
     16.0890	 3680.00	 3687.78	-1671.28	 3161.87
     16.1150	 3758.00	 3691.70	-1597.20	 3165.37
     16.1410	 3725.00	 3695.63	-1634.13	 3168.88
     16.1670	 3717.00	 3699.57	-1646.07	 3172.38
     16.1930	 3779.00	 3703.52	-1588.02	 3175.88
     16.2190	 3807.00	 3707.48	-1563.98	 3179.38
     16.2450	 3740.00	 3711.46	-1634.96	 3182.88
     16.2710	 3698.00	 3715.44	-1680.94	 3186.39
     16.2970	 3748.00	 3719.45	-1634.95	 3189.89
     16.3230	 3678.00	 3723.46	-1708.96	 3193.39
     16.3490	 3704.00	 3727.49	-1686.99	 3196.89
     16.3750	 3818.00	 3731.54	-1577.04	 3200.39
     16.4010	 3863.00	 3735.60	-1536.10	 3203.90
     16.4270	 3811.00	 3739.68	-1592.18	 3207.40
     16.4530	 3774.00	 3743.78	-1633.28	 3210.90
     16.4790	 3789.00	 3747.89	-1622.39	 3214.40
     16.5050	 3810.00	 3752.02	-1605.52	 3217.91
     16.5310	 3804.00	 3756.17	-1615.67	 3221.41
     16.5570	 3867.00	 3760.34	-1556.84	 3224.91
     16.5830	 3894.00	 3764.53	-1534.03	 3228.41
     16.6090	 3837.00	 3768.74	-1595.24	 3231.91
     16.6350	 3804.00	 3772.97	-1632.47	 3235.42
     16.6610	 3764.00	 3777.23	-1676.73	 3238.92
     16.6870	 3804.00	 3781.51	-1641.01	 3242.42
     16.7130	 3923.00	 3785.81	-1526.31	 3245.92
     16.7390	 3831.00	 3790.14	-1622.64	 3249.42
     16.7650	 3786.00	 3794.50	-1672.00	 3252.93
     16.7910	 3897.00	 3798.88	-1565.38	 3256.43
     16.8170	 3864.00	 3803.29	-1602.79	 3259.93
     16.8430	 3792.00	 3807.74	-1679.24	 3263.43
     16.8690	 3876.00	 3812.21	-1599.71	 3266.93
     16.8950	 3980.00	 3816.71	-1500.21	 3270.44
     16.9210	 3937.00	 3822.67	-1549.17	 3275.36
     16.9470	 3861.00	 3830.60	-1633.10	 3282.22
     16.9730	 3863.00	 3838.56	-1639.06	 3289.08
     16.9990	 3893.00	 3846.57	-1617.07	 3295.95
     17.0250	 3878.00	 3854.61	-1640.11	 3302.81
     17.0510	 3882.00	 3862.69	-1644.19	 3309.67
     17.0770	 3872.00	 3870.80	-1662.30	 3316.54
     17.1030	 3871.00	 3878.96	-1671.46	 3323.40
     17.1290	 3944.00	 3887.17	-1606.67	 3330.26
     17.1550	 3930.00	 3895.41	-1628.91	 3337.12
     17.1810	 3932.00	 3903.70	-1635.20	 3343.99
     17.2070	 3966.00	 3912.04	-1609.54	 3350.85
     17.2330	 3931.00	 3920.43	-1652.93	 3357.71
     17.2590	 3961.00	 3928.86	-1631.36	 3364.58
     17.2850	 3910.00	 3937.34	-1690.84	 3371.44
     17.3110	 3930.00	 3945.87	-1679.37	 3378.30
     17.3370	 3953.00	 3954.46	-1664.96	 3385.16
     17.3630	 4131.00	 3963.09	-1495.59	 3392.03
     17.3890	 4124.00	 3971.78	-1511.28	 3398.89
     17.4150	 4046.00	 3980.52	-1598.02	 3405.75
     17.4410	 4010.00	 3989.32	-1642.82	 3412.61
     17.4670	 3875.00	 3998.16	-1786.66	 3419.48
     17.4930	 3839.00	 4007.06	-1831.56	 3426.34
     17.5190	 3943.00	 4016.01	-1736.51	 3433.20
     17.5450	 4040.00	 4025.01	-1648.51	 3440.07
     17.5710	 3978.00	 4034.06	-1719.56	 3446.93
     17.5970	 3981.00	 4043.16	-1725.66	 3453.79
     17.6230	 3959.00	 4052.30	-1756.80	 3460.65
     17.6490	 4176.00	 4061.48	-1548.98	 3467.52
     17.6750	 4040.00	 4070.69	-1694.19	 3474.38
     17.7010	 4086.00	 4079.94	-1657.44	 3481.24
     17.7270	 3992.00	 4089.22	-1760.72	 3488.11
     17.7530	 4187.00	 4098.52	-1575.02	 3494.97
     17.7790	 4102.00	 4107.83	-1669.33	 3501.83
     17.8050	 4067.00	 4115.74	-1712.24	 3507.29
     17.8310	 4142.00	 4122.62	-1644.12	 3511.72
     17.8570	 4047.00	 4129.50	-1746.00	 3516.15
     17.8830	 4025.00	 4136.35	-1774.85	 3520.57
     17.9090	 4208.00	 4143.16	-1598.66	 3525.00
     17.9350	 4080.00	 4149.94	-1733.44	 3529.43
     17.9610	 4217.00	 4156.66	-1603.16	 3533.86
     17.9870	 4139.00	 4163.30	-1687.80	 3538.29
     18.0130	 4124.00	 4169.87	-1709.37	 3542.72
     18.0390	 4075.00	 4176.34	-1764.84	 3547.15
     18.0650	 4051.00	 4182.70	-1795.20	 3551.57
     18.0910	 4222.00	 4188.93	-1630.43	 3556.00
     18.1170	 4200.00	 4195.03	-1658.53	 3560.43
     18.1430	 4142.00	 4200.98	-1722.48	 3564.86
     18.1690	 4079.00	 4206.76	-1791.26	 3569.29
     18.1950	 4016.00	 4212.37	-1859.87	 3573.72
     18.2210	 4261.00	 4217.79	-1620.29	 3578.15
     18.2470	 4289.00	 4223.03	-1597.53	 3582.57
     18.2730	 4205.00	 4228.06	-1686.56	 3587.00
     18.2990	 4326.00	 4232.89	-1570.39	 3591.43
     18.3250	 4302.00	 4237.51	-1599.01	 3595.86
     18.3510	 3990.00	 4241.92	-1915.42	 3600.29
     18.3770	 4027.00	 4246.12	-1882.62	 3604.72
     18.4030	 4133.00	 4250.11	-1780.61	 3609.15
     18.4290	 4288.00	 4253.91	-1629.41	 3613.57
     18.4550	 4257.00	 4257.51	-1664.01	 3618.00
     18.4810	 4222.00	 4260.92	-1702.42	 3622.43
     18.5070	 4135.00	 4264.16	-1792.66	 3626.86
     18.5330	 4217.00	 4267.23	-1713.73	 3631.29
     18.5590	 4127.00	 4270.14	-1806.64	 3635.72
     18.5850	 4121.00	 4272.92	-1815.42	 3640.15
     18.6110	 4222.00	 4275.57	-1717.07	 3644.57
     18.6370	 4203.00	 4278.11	-1738.61	 3649.00
     18.6630	 4198.00	 4280.54	-1746.04	 3653.43
     18.6890	 4191.00	 4282.89	-1755.39	 3657.86
     18.7150	 4162.00	 4285.17	-1786.67	 3662.29
     18.7410	 4140.00	 4287.39	-1810.89	 3666.72
     18.7670	 4206.00	 4289.56	-1747.06	 3671.14
     18.7930	 4219.00	 4291.69	-1736.19	 3675.57
     18.8190	 4136.00	 4293.80	-1821.30	 3680.00
     18.8450	 4212.00	 4295.90	-1747.40	 3684.43
     18.8710	 4238.00	 4298.00	-1723.50	 3688.86
     18.8970	 4219.00	 4300.10	-1744.60	 3693.29
     18.9230	 4201.00	 4302.21	-1764.71	 3697.72
     18.9490	 4217.00	 4304.35	-1750.85	 3702.14
     18.9750	 4108.00	 4306.50	-1862.00	 3706.57
     19.0010	 4168.00	 4308.69	-1804.19	 3711.00
     19.0270	 4216.00	 4310.92	-1758.42	 3715.43
     19.0530	 4157.00	 4313.19	-1819.69	 3719.86
     19.0790	 4200.00	 4315.49	-1778.99	 3724.29
     19.1050	 4178.00	 4317.85	-1803.35	 3728.72
     19.1310	 4172.00	 4320.25	-1811.75	 3733.14
     19.1570	 4230.00	 4320.10	-1753.60	 3734.96
     19.1830	 4280.00	 4319.84	-1703.34	 3736.63
     19.2090	 4171.00	 4319.64	-1812.14	 3738.30
     19.2350	 4101.00	 4319.49	-1881.99	 3739.97
     19.2610	 4161.00	 4319.40	-1821.90	 3741.64
     19.2870	 4235.00	 4319.35	-1747.85	 3743.31
     19.3130	 4133.00	 4319.36	-1849.86	 3744.98
     19.3390	 4188.00	 4319.43	-1794.93	 3746.65
     19.3650	 4302.00	 4319.54	-1681.04	 3748.32
     19.3910	 4259.00	 4319.70	-1724.20	 3750.00
     19.4170	 4228.00	 4319.92	-1755.42	 3751.67
     19.4430	 4251.00	 4320.18	-1732.68	 3753.34
     19.4690	 4276.00	 4320.49	-1707.99	 3755.01
     19.4950	 4234.00	 4320.85	-1750.35	 3756.68
     19.5210	 4263.00	 4321.25	-1721.75	 3758.35
     19.5470	 4225.00	 4321.70	-1760.20	 3760.02
     19.5730	 4119.00	 4322.19	-1866.69	 3761.69
     19.5990	 4157.00	 4322.72	-1829.22	 3763.36
     19.6250	 4186.00	 4323.29	-1800.79	 3765.03
     19.6510	 4239.00	 4323.91	-1748.41	 3766.70
     19.6770	 4313.00	 4324.56	-1675.06	 3768.37
     19.7030	 4297.00	 4325.24	-1691.74	 3770.04
     19.7290	 4222.00	 4325.97	-1767.47	 3771.71
     19.7550	 4247.00	 4326.72	-1743.22	 3773.38
     19.7810	 4404.00	 4327.51	-1587.01	 3775.05
     19.8070	 4371.00	 4328.34	-1620.84	 3776.72
     19.8330	 4315.00	 4329.19	-1677.69	 3778.39
     19.8590	 4266.00	 4330.08	-1727.58	 3780.06
     19.8850	 4373.00	 4330.99	-1621.49	 3781.73
     19.9110	 4342.00	 4331.93	-1653.43	 3783.40
     19.9370	 4255.00	 4332.90	-1741.40	 3785.07
     19.9630	 4284.00	 4333.89	-1713.39	 3786.74
     19.9890	 4376.00	 4334.91	-1622.41	 3788.41
     20.0150	 4329.00	 4335.95	-1670.45	 3790.08
     20.0410	 4332.00	 4337.02	-1668.52	 3791.75
     20.0670	 4375.00	 4338.11	-1626.61	 3793.42
     20.0930	 4319.00	 4339.22	-1683.72	 3795.09
     20.1190	 4404.00	 4340.35	-1599.85	 3796.76
     20.1450	 4279.00	 4341.50	-1726.00	 3798.43
     20.1710	 4367.00	 4342.67	-1639.17	 3800.10
     20.1970	 4374.00	 4343.86	-1633.36	 3801.77
     20.2230	 4294.00	 4345.07	-1714.57	 3803.44
     20.2490	 4384.00	 4346.29	-1625.79	 3805.11
     20.2750	 4394.00	 4347.54	-1617.04	 3806.78
     20.3010	 4356.00	 4348.80	-1656.30	 3808.45
     20.3270	 4392.00	 4350.07	-1621.57	 3810.12
     20.3530	 4375.00	 4351.36	-1639.86	 3811.79
     20.3790	 4357.00	 4352.66	-1659.16	 3813.46
     20.4050	 4386.00	 4353.98	-1631.48	 3815.13
     20.4310	 4475.00	 4355.31	-1543.81	 3816.80
     20.4570	 4403.00	 4356.66	-1617.16	 3818.47
     20.4830	 4464.00	 4358.02	-1557.52	 3820.15
     20.5090	 4438.00	 4359.39	-1584.89	 3821.82
     20.5350	 4343.00	 4360.77	-1681.27	 3823.49
     20.5610	 4426.00	 4362.17	-1599.67	 3825.16
     20.5870	 4349.00	 4363.57	-1678.07	 3826.83
     20.6130	 4461.00	 4364.99	-1567.49	 3828.50
     20.6390	 4452.00	 4366.41	-1577.91	 3830.17
     20.6650	 4378.00	 4367.85	-1653.35	 3831.84
     20.6910	 4645.00	 4369.30	-1387.80	 3833.51
     20.7170	 4431.00	 4370.75	-1603.25	 3835.18
     20.7430	 4640.00	 4372.22	-1395.72	 3836.85
     20.7690	 4554.00	 4373.69	-1483.19	 3838.52
     20.7950	 4397.00	 4375.18	-1641.68	 3840.19
     20.8210	 4544.00	 4376.67	-1496.17	 3841.86
     20.8470	 4496.00	 4378.17	-1545.67	 3843.53
     20.8730	 4491.00	 4379.67	-1552.17	 3845.20
     20.8990	 4517.00	 4381.19	-1527.69	 3846.87
     20.9250	 4640.00	 4382.71	-1406.21	 3848.54
     20.9510	 4572.00	 4384.24	-1475.74	 3850.21
     20.9770	 4544.00	 4385.78	-1505.28	 3851.88
     21.0030	 4586.00	 4387.50	-1465.00	 3853.73
     21.0290	 4453.00	 4389.79	-1600.29	 3856.14
     21.0550	 4584.00	 4392.09	-1471.59	 3858.55
     21.0810	 4533.00	 4394.40	-1524.90	 3860.96
     21.1070	 4553.00	 4396.71	-1507.21	 3863.38
     21.1330	 4621.00	 4399.03	-1441.53	 3865.79
     21.1590	 4529.00	 4401.35	-1535.85	 3868.20
     21.1850	 4536.00	 4403.68	-1531.18	 3870.61
     21.2110	 4532.00	 4406.02	-1537.52	 3873.03
     21.2370	 4533.00	 4408.36	-1538.86	 3875.44
     21.2630	 4525.00	 4410.71	-1549.21	 3877.85
     21.2890	 4482.00	 4413.06	-1594.56	 3880.26
     21.3150	 4496.00	 4415.41	-1582.91	 3882.68
     21.3410	 4535.00	 4417.78	-1546.28	 3885.09
     21.3670	 4561.00	 4420.14	-1522.64	 3887.50
     21.3930	 4637.00	 4422.51	-1449.01	 3889.92
     21.4190	 4571.00	 4424.89	-1517.39	 3892.33
     21.4450	 4536.00	 4427.27	-1554.77	 3894.74
     21.4710	 4608.00	 4429.65	-1485.15	 3897.15
     21.4970	 4600.00	 4432.04	-1495.54	 3899.57
     21.5230	 4542.00	 4434.44	-1555.94	 3901.98
     21.5490	 4685.00	 4436.83	-1415.33	 3904.39
     21.5750	 4608.00	 4439.24	-1494.74	 3906.80
     21.6010	 4571.00	 4441.64	-1534.14	 3909.22
     21.6270	 4563.00	 4444.05	-1544.55	 3911.63
     21.6530	 4566.00	 4446.47	-1543.97	 3914.04
     21.6790	 4482.00	 4448.88	-1630.38	 3916.45
     21.7050	 4580.00	 4451.30	-1534.80	 3918.87
     21.7310	 4617.00	 4453.73	-1500.23	 3921.28
     21.7570	 4556.00	 4456.16	-1563.66	 3923.69
     21.7830	 4623.00	 4458.59	-1499.09	 3926.10
     21.8090	 4649.00	 4461.02	-1475.52	 3928.52
     21.8350	 4631.00	 4463.46	-1495.96	 3930.93
     21.8610	 4568.00	 4465.91	-1561.41	 3933.34
     21.8870	 4542.00	 4468.35	-1589.85	 3935.75
     21.9130	 4658.00	 4470.80	-1476.30	 3938.17
     21.9390	 4629.00	 4473.25	-1507.75	 3940.58
     21.9650	 4550.00	 4475.71	-1589.21	 3942.99
     21.9910	 4632.00	 4478.17	-1509.67	 3945.40
     22.0170	 4657.00	 4480.63	-1487.13	 3947.82
     22.0430	 4598.00	 4483.09	-1548.59	 3950.23
     22.0690	 4584.00	 4485.56	-1565.06	 3952.64
     22.0950	 4643.00	 4488.03	-1508.53	 3955.05
     22.1210	 4669.00	 4490.51	-1485.01	 3957.47
     22.1470	 4595.00	 4492.99	-1561.49	 3959.88
     22.1730	 4643.00	 4495.47	-1515.97	 3962.29
     22.1990	 4709.00	 4497.95	-1452.45	 3964.70
     22.2250	 4624.00	 4500.44	-1539.94	 3967.12
     22.2510	 4617.00	 4502.93	-1549.43	 3969.53
     22.2770	 4655.00	 4505.42	-1513.92	 3971.94
     22.3030	 4682.00	 4507.91	-1489.41	 3974.35
     22.3290	 4705.00	 4510.41	-1468.91	 3976.77
     22.3550	 4630.00	 4512.91	-1546.41	 3979.18
     22.3810	 4539.00	 4515.41	-1639.91	 3981.59
     22.4070	 4521.00	 4517.92	-1660.42	 3984.00
     22.4330	 4642.00	 4520.43	-1541.93	 3986.42
     22.4590	 4694.00	 4522.94	-1492.44	 3988.83
     22.4850	 4680.00	 4525.45	-1508.95	 3991.24
     22.5110	 4668.00	 4527.97	-1523.47	 3993.65
     22.5370	 4621.00	 4530.48	-1572.98	 3996.07
     22.5630	 4602.00	 4533.01	-1594.51	 3998.48
     22.5890	 4605.00	 4535.53	-1594.03	 4000.89
     22.6150	 4663.00	 4538.06	-1538.56	 4003.31
     22.6410	 4584.00	 4540.59	-1620.09	 4005.72
     22.6670	 4595.00	 4543.12	-1611.62	 4008.13
     22.6930	 4678.00	 4545.65	-1531.15	 4010.54
     22.7190	 4595.00	 4548.19	-1616.69	 4012.96
     22.7450	 4566.00	 4550.73	-1648.23	 4015.37
     22.7710	 4733.00	 4551.82	-1482.32	 4016.33
     22.7970	 4702.00	 4551.70	-1513.20	 4016.07
     22.8230	 4662.00	 4551.57	-1553.07	 4015.81
     22.8490	 4666.00	 4551.45	-1548.95	 4015.55
     22.8750	 4687.00	 4551.33	-1527.83	 4015.29
     22.9010	 4670.00	 4551.22	-1544.72	 4015.04
     22.9270	 4669.00	 4551.10	-1545.60	 4014.78
     22.9530	 4631.00	 4550.99	-1583.49	 4014.52
     22.9790	 4618.00	 4550.88	-1596.38	 4014.26
     23.0050	 4717.00	 4550.78	-1497.28	 4014.00
     23.0310	 4582.00	 4550.67	-1632.17	 4013.74
     23.0570	 4644.00	 4550.57	-1570.07	 4013.48
     23.0830	 4685.00	 4550.48	-1528.98	 4013.22
     23.1090	 4590.00	 4550.38	-1623.88	 4012.96
     23.1350	 4634.00	 4550.29	-1579.79	 4012.70
     23.1610	 4742.00	 4550.20	-1471.70	 4012.44
     23.1870	 4632.00	 4550.11	-1581.61	 4012.18
     23.2130	 4566.00	 4550.03	-1647.53	 4011.92
     23.2390	 4564.00	 4549.94	-1649.44	 4011.66
     23.2650	 4678.00	 4549.86	-1535.36	 4011.41
     23.2910	 4622.00	 4549.79	-1591.29	 4011.15
     23.3170	 4563.00	 4549.71	-1650.21	 4010.89
     23.3430	 4702.00	 4549.64	-1511.14	 4010.63
     23.3690	 4635.00	 4549.57	-1578.07	 4010.37
     23.3950	 4616.00	 4549.51	-1597.01	 4010.11
     23.4210	 4638.00	 4549.45	-1574.95	 4009.85
     23.4470	 4532.00	 4549.39	-1680.89	 4009.59
     23.4730	 4528.00	 4549.33	-1684.83	 4009.33
     23.4990	 4645.00	 4549.28	-1567.78	 4009.07
     23.5250	 4602.00	 4549.22	-1610.72	 4008.81
     23.5510	 4559.00	 4549.18	-1653.68	 4008.55
     23.5770	 4736.00	 4549.13	-1476.63	 4008.29
     23.6030	 4658.00	 4549.09	-1554.59	 4008.03
     23.6290	 4507.00	 4549.05	-1705.55	 4007.78
     23.6550	 4564.00	 4549.01	-1648.51	 4007.52
     23.6810	 4525.00	 4548.98	-1687.48	 4007.26
     23.7070	 4744.00	 4548.95	-1468.45	 4007.00
     23.7330	 4639.00	 4548.92	-1573.42	 4006.74
     23.7590	 4640.00	 4548.89	-1572.39	 4006.48
     23.7850	 4559.00	 4548.87	-1653.37	 4006.22
     23.8110	 4627.00	 4548.86	-1585.36	 4005.96
     23.8370	 4581.00	 4548.84	-1631.34	 4005.70
     23.8630	 4544.00	 4548.83	-1668.33	 4005.44
     23.8890	 4666.00	 4548.82	-1546.32	 4005.18
     23.9150	 4683.00	 4548.81	-1529.31	 4004.92
     23.9410	 4572.00	 4548.81	-1640.31	 4004.66
     23.9670	 4537.00	 4548.81	-1675.31	 4004.40
     23.9930	 4629.00	 4548.82	-1583.32	 4004.15
     24.0190	 4593.00	 4548.83	-1619.33	 4003.89
     24.0450	 4532.00	 4548.84	-1680.34	 4003.63
     24.0710	 4557.00	 4548.85	-1655.35	 4003.37
     24.0970	 4626.00	 4548.87	-1586.37	 4003.11
     24.1230	 4589.00	 4548.90	-1623.40	 4002.85
     24.1490	 4571.00	 4548.92	-1641.42	 4002.59
     24.1750	 4558.00	 4548.95	-1654.45	 4002.33
     24.2010	 4531.00	 4548.98	-1681.48	 4002.07
     24.2270	 4617.00	 4549.02	-1595.52	 4001.81
     24.2530	 4597.00	 4549.06	-1615.56	 4001.55
     24.2790	 4527.00	 4549.11	-1685.61	 4001.29
     24.3050	 4519.00	 4549.16	-1693.66	 4001.03
     24.3310	 4558.00	 4549.21	-1654.71	 4000.77
     24.3570	 4601.00	 4549.27	-1611.77	 4000.52
     24.3830	 4645.00	 4549.33	-1567.83	 4000.26
     24.4090	 4570.00	 4549.39	-1642.89	 4000.00
     24.4350	 4480.00	 4549.46	-1732.96	 3999.74
     24.4610	 4518.00	 4549.53	-1695.03	 3999.48
     24.4870	 4532.00	 4549.61	-1681.11	 3999.22
     24.5130	 4507.00	 4549.69	-1706.19	 3998.96
     24.5390	 4483.00	 4549.78	-1730.28	 3998.70
     24.5650	 4491.00	 4549.87	-1722.37	 3998.44
     24.5910	 4469.00	 4549.47	-1743.97	 3997.69
     24.6170	 4461.00	 4548.69	-1751.19	 3996.55
     24.6430	 4481.00	 4547.91	-1730.41	 3995.40
     24.6690	 4477.00	 4547.13	-1733.63	 3994.26
     24.6950	 4444.00	 4546.36	-1765.86	 3993.11
     24.7210	 4495.00	 4545.59	-1714.09	 3991.97
     24.7470	 4587.00	 4544.83	-1621.33	 3990.83
     24.7730	 4542.00	 4544.08	-1665.58	 3989.68
     24.7990	 4486.00	 4543.33	-1720.83	 3988.54
     24.8250	 4435.00	 4542.58	-1771.08	 3987.39
     24.8510	 4451.00	 4541.84	-1754.34	 3986.25
     24.8770	 4548.00	 4541.10	-1656.60	 3985.10
     24.9030	 4527.00	 4540.37	-1676.87	 3983.96
     24.9290	 4454.00	 4539.65	-1749.15	 3982.82
     24.9550	 4406.00	 4538.93	-1796.43	 3981.67
     24.9810	 4458.00	 4538.22	-1743.72	 3980.53
     25.0070	 4564.00	 4537.51	-1637.01	 3979.38
     25.0330	 4585.00	 4536.81	-1615.31	 3978.24
     25.0590	 4428.00	 4536.11	-1771.61	 3977.10
     25.0850	 4366.00	 4535.42	-1832.92	 3975.95
     25.1110	 4392.00	 4534.74	-1806.24	 3974.81
     25.1370	 4442.00	 4534.06	-1755.56	 3973.66
     25.1630	 4403.00	 4533.39	-1793.89	 3972.52
     25.1890	 4399.00	 4532.73	-1797.23	 3971.37
     25.2150	 4457.00	 4532.07	-1738.57	 3970.23
     25.2410	 4451.00	 4531.42	-1743.92	 3969.09
     25.2670	 4410.00	 4530.77	-1784.27	 3967.94
     25.2930	 4458.00	 4530.13	-1735.63	 3966.80
     25.3190	 4478.00	 4529.50	-1715.00	 3965.65
     25.3450	 4434.00	 4528.88	-1758.38	 3964.51
     25.3710	 4478.00	 4528.27	-1713.77	 3963.37
     25.3970	 4496.00	 4527.66	-1695.16	 3962.22
     25.4230	 4471.00	 4527.06	-1719.56	 3961.08
     25.4490	 4474.00	 4526.46	-1715.96	 3959.93
     25.4750	 4470.00	 4525.88	-1719.38	 3958.79
     25.5010	 4458.00	 4525.30	-1730.80	 3957.64
     25.5270	 4573.00	 4524.73	-1615.23	 3956.50
     25.5530	 4447.00	 4524.17	-1740.67	 3955.36
     25.5790	 4540.00	 4523.62	-1647.12	 3954.21
     25.6050	 4536.00	 4523.08	-1650.58	 3953.07
     25.6310	 4496.00	 4522.54	-1690.04	 3951.92
     25.6570	 4482.00	 4522.02	-1703.52	 3950.78
     25.6830	 4450.00	 4521.50	-1735.00	 3949.63
     25.7090	 4412.00	 4520.99	-1772.49	 3948.49
     25.7350	 4480.00	 4520.50	-1704.00	 3947.35
     25.7610	 4431.00	 4520.01	-1752.51	 3946.20
     25.7870	 4605.00	 4519.53	-1578.03	 3945.06
     25.8130	 4550.00	 4519.06	-1632.56	 3943.91
     25.8390	 4498.00	 4518.61	-1684.11	 3942.77
     25.8650	 4516.00	 4518.16	-1665.66	 3941.63
     25.8910	 4521.00	 4517.72	-1660.22	 3940.48
     25.9170	 4400.00	 4517.30	-1780.80	 3939.34
     25.9430	 4608.00	 4516.88	-1572.38	 3938.19
     25.9690	 4381.00	 4516.48	-1798.98	 3937.05
     25.9950	 4484.00	 4516.21	-1695.71	 3936.02
     26.0210	 4508.00	 4516.01	-1671.51	 3935.06
     26.0470	 4512.00	 4515.83	-1667.33	 3934.10
     26.0730	 4567.00	 4515.66	-1612.16	 3933.14
     26.0990	 4555.00	 4515.51	-1624.01	 3932.18
     26.1250	 4585.00	 4515.36	-1593.86	 3931.22
     26.1510	 4476.00	 4515.23	-1702.73	 3930.26
     26.1770	 4543.00	 4515.11	-1635.61	 3929.30
     26.2030	 4576.00	 4515.01	-1602.51	 3928.34
     26.2290	 4595.00	 4514.92	-1583.42	 3927.38
     26.2550	 4426.00	 4514.85	-1752.35	 3926.42
     26.2810	 4417.00	 4514.79	-1761.29	 3925.46
     26.3070	 4465.00	 4514.75	-1713.25	 3924.50
     26.3330	 4543.00	 4514.72	-1635.22	 3923.54
     26.3590	 4490.00	 4514.70	-1688.20	 3922.58
     26.3850	 4523.00	 4514.71	-1655.21	 3921.62
     26.4110	 4508.00	 4514.73	-1670.23	 3920.66
     26.4370	 4566.00	 4514.77	-1612.27	 3919.70
     26.4630	 4441.00	 4514.82	-1737.32	 3918.74
     26.4890	 4490.00	 4514.89	-1688.39	 3917.78
     26.5150	 4503.00	 4514.98	-1675.48	 3916.82
     26.5410	 4384.00	 4515.09	-1794.59	 3915.86
     26.5670	 4515.00	 4515.22	-1663.72	 3914.90
     26.5930	 4464.00	 4515.37	-1714.87	 3913.94
     26.6190	 4584.00	 4515.54	-1595.04	 3912.98
     26.6450	 4626.00	 4515.73	-1553.23	 3912.02
     26.6710	 4578.00	 4515.94	-1601.44	 3911.06
     26.6970	 4646.00	 4516.18	-1533.68	 3910.10
     26.7230	 4609.00	 4516.43	-1570.93	 3909.14
     26.7490	 4481.00	 4516.71	-1699.21	 3908.18
     26.7750	 4484.00	 4517.01	-1696.51	 3907.23
     26.8010	 4525.00	 4517.34	-1655.84	 3906.27
     26.8270	 4531.00	 4517.69	-1650.19	 3905.31
     26.8530	 4615.00	 4518.06	-1566.56	 3904.35
     26.8790	 4616.00	 4518.46	-1565.96	 3903.39
     26.9050	 4669.00	 4518.89	-1513.39	 3902.43
     26.9310	 4601.00	 4519.35	-1581.85	 3901.47
     26.9570	 4599.00	 4519.83	-1584.33	 3900.51
     26.9830	 4516.00	 4520.35	-1667.85	 3899.55
     27.0090	 4545.00	 4520.89	-1639.39	 3898.59
     27.0350	 4655.00	 4521.46	-1529.96	 3897.63
     27.0610	 4614.00	 4522.07	-1571.57	 3896.67
     27.0870	 4583.00	 4522.71	-1603.21	 3895.71
     27.1130	 4534.00	 4523.38	-1652.88	 3894.75
     27.1390	 4547.00	 4524.08	-1640.58	 3893.79
     27.1650	 4595.00	 4524.82	-1593.32	 3892.83
     27.1910	 4586.00	 4525.60	-1603.10	 3891.87
     27.2170	 4488.00	 4526.41	-1701.91	 3890.91
     27.2430	 4505.00	 4527.27	-1685.77	 3889.95
     27.2690	 4572.00	 4528.16	-1619.66	 3888.99
     27.2950	 4568.00	 4529.09	-1624.59	 3888.03
     27.3210	 4545.00	 4530.06	-1648.56	 3887.07
     27.3470	 4494.00	 4531.08	-1700.58	 3886.11
     27.3730	 4490.00	 4532.14	-1705.64	 3885.15
     27.3990	 4509.00	 4533.25	-1687.75	 3884.19
     27.4250	 4566.00	 4534.40	-1631.90	 3883.23
     27.4510	 4564.00	 4535.60	-1635.10	 3882.27
     27.4770	 4560.00	 4536.86	-1640.36	 3881.31
     27.5030	 4573.00	 4538.16	-1628.66	 3880.35
     27.5290	 4537.00	 4539.52	-1666.02	 3879.39
     27.5550	 4601.00	 4540.93	-1603.43	 3878.43
     27.5810	 4596.00	 4542.40	-1609.90	 3877.47
     27.6070	 4608.00	 4543.93	-1599.43	 3876.51
     27.6330	 4590.00	 4545.52	-1619.02	 3875.55
     27.6590	 4503.00	 4547.17	-1707.67	 3874.59
     27.6850	 4461.00	 4548.88	-1751.38	 3873.63
     27.7110	 4556.00	 4550.66	-1658.16	 3872.67
     27.7370	 4606.00	 4552.51	-1610.01	 3871.71
     27.7630	 4612.00	 4554.43	-1605.93	 3870.75
     27.7890	 4558.00	 4556.43	-1661.93	 3869.79
     27.8150	 4559.00	 4558.50	-1663.00	 3868.83
     27.8410	 4538.00	 4560.64	-1686.14	 3867.87
     27.8670	 4517.00	 4562.87	-1709.37	 3866.91
     27.8930	 4438.00	 4565.19	-1790.69	 3865.95
     27.9190	 4573.00	 4567.58	-1658.08	 3864.99
     27.9450	 4488.00	 4570.39	-1745.89	 3864.03
     27.9710	 4529.00	 4572.97	-1707.47	 3863.07
     27.9970	 4563.00	 4575.65	-1676.15	 3862.11
     28.0230	 4562.00	 4578.42	-1679.92	 3861.15
     28.0490	 4504.00	 4581.46	-1740.96	 3860.19
     28.0750	 4614.00	 4584.45	-1633.95	 3859.23
     28.1010	 4607.00	 4587.54	-1644.04	 3858.27
     28.1270	 4633.00	 4590.76	-1621.26	 3857.31
     28.1530	 4575.00	 4593.03	-1681.53	 3855.30
     28.1790	 4518.00	 4594.11	-1739.61	 3851.97
     28.2050	 4497.00	 4595.32	-1761.82	 3848.64
     28.2310	 4593.00	 4596.67	-1667.17	 3845.31
     28.2570	 4498.00	 4598.14	-1763.64	 3841.98
     28.2830	 4594.00	 4599.76	-1669.26	 3838.65
     28.3090	 4516.00	 4601.53	-1749.03	 3835.32
     28.3350	 4527.00	 4603.45	-1739.95	 3831.99
     28.3610	 4488.00	 4605.52	-1781.02	 3828.67
     28.3870	 4670.00	 4607.76	-1601.26	 3825.34
     28.4130	 4585.00	 4610.16	-1688.66	 3822.01
     28.4390	 4614.00	 4612.75	-1662.25	 3818.68
     28.4650	 4588.00	 4615.51	-1691.01	 3815.35
     28.4910	 4647.00	 4618.46	-1634.96	 3812.02
     28.5170	 4639.00	 4621.60	-1646.10	 3808.69
     28.5430	 4627.00	 4624.95	-1661.45	 3805.36
     28.5690	 4568.00	 4628.51	-1724.01	 3802.04
     28.5950	 4579.00	 4632.28	-1716.78	 3798.71
     28.6210	 4692.00	 4636.28	-1607.78	 3795.38
     28.6470	 4586.00	 4640.51	-1718.01	 3792.05
     28.6730	 4575.00	 4644.98	-1733.48	 3788.72
     28.6990	 4676.00	 4649.70	-1637.20	 3785.39
     28.7250	 4692.00	 4654.68	-1626.18	 3782.06
     28.7510	 4523.00	 4659.93	-1800.43	 3778.73
     28.7770	 4587.00	 4665.44	-1741.94	 3775.41
     28.8030	 4632.00	 4671.25	-1702.75	 3772.08
     28.8290	 4644.00	 4677.35	-1696.85	 3768.75
     28.8550	 4689.00	 4683.75	-1658.25	 3765.42
     28.8810	 4692.00	 4690.46	-1661.96	 3762.09
     28.9070	 4688.00	 4697.50	-1673.00	 3758.76
     28.9330	 4637.00	 4704.87	-1731.37	 3755.43
     28.9590	 4621.00	 4712.57	-1755.07	 3752.11
     28.9850	 4678.00	 4720.63	-1706.13	 3748.78
     29.0110	 4591.00	 4729.05	-1801.55	 3745.45
     29.0370	 4675.00	 4737.83	-1726.33	 3742.12
     29.0630	 4592.00	 4746.98	-1818.48	 3738.79
     29.0890	 4582.00	 4756.52	-1838.02	 3735.46
     29.1150	 4722.00	 4766.44	-1707.94	 3732.13
     29.1410	 4781.00	 4776.76	-1659.26	 3728.80
     29.1670	 4739.00	 4787.48	-1711.98	 3725.48
     29.1930	 4788.00	 4798.60	-1674.10	 3722.15
     29.2190	 4732.00	 4810.13	-1741.63	 3718.82
     29.2450	 4722.00	 4822.05	-1763.55	 3715.49
     29.2710	 4718.00	 4834.39	-1779.89	 3712.16
     29.2970	 4838.00	 4847.12	-1672.62	 3708.83
     29.3230	 4798.00	 4860.24	-1725.74	 3705.50
     29.3490	 4753.00	 4873.74	-1784.24	 3702.17
     29.3750	 4790.00	 4887.62	-1761.12	 3698.85
     29.4010	 4787.00	 4901.85	-1778.35	 3695.52
     29.4270	 4852.00	 4916.42	-1727.92	 3692.19
     29.4530	 4911.00	 4931.31	-1683.81	 3688.86
     29.4790	 4914.00	 4946.47	-1695.97	 3685.53
     29.5050	 4811.00	 4961.89	-1814.39	 3682.20
     29.5310	 4966.00	 4977.51	-1675.01	 3678.87
     29.5570	 4998.00	 4993.31	-1658.81	 3675.54
     29.5830	 4986.00	 5009.23	-1686.73	 3672.22
     29.6090	 5012.00	 5025.21	-1676.71	 3668.89
     29.6350	 5014.00	 5041.19	-1690.69	 3665.56
     29.6610	 4899.00	 5057.10	-1821.60	 3662.23
     29.6870	 4973.00	 5072.87	-1763.37	 3658.90
     29.7130	 5006.00	 5088.42	-1745.92	 3655.57
     29.7390	 4988.00	 5103.67	-1779.17	 3652.24
     29.7650	 5011.00	 5118.52	-1771.02	 3648.92
     29.7910	 5044.00	 5132.88	-1752.38	 3645.59
     29.8170	 5131.00	 5146.66	-1679.16	 3642.26
     29.8430	 5162.00	 5159.74	-1661.24	 3638.93
     29.8690	 5140.00	 5172.03	-1695.53	 3635.60
     29.8950	 5169.00	 5183.44	-1677.94	 3632.27
     29.9210	 5184.00	 5193.84	-1673.34	 3628.94
     29.9470	 5084.00	 5203.16	-1782.66	 3625.61
     29.9730	 5072.00	 5211.30	-1802.80	 3622.29
     29.9990	 5187.00	 5218.17	-1694.67	 3618.96
     30.0250	 5194.00	 5223.69	-1693.19	 3615.63
     30.0510	 5190.00	 5227.80	-1701.30	 3612.30
     30.0770	 5246.00	 5230.44	-1647.94	 3608.97
     30.1030	 5219.00	 5231.56	-1676.06	 3605.64
     30.1290	 5196.00	 5231.14	-1698.64	 3602.31
     30.1550	 5282.00	 5229.15	-1610.65	 3598.98
     30.1810	 5301.00	 5225.59	-1588.09	 3595.66
     30.2070	 5254.00	 5220.47	-1629.97	 3592.33
     30.2330	 5289.00	 5213.82	-1588.32	 3589.00
     30.2590	 5287.00	 5205.67	-1582.17	 3585.67
     30.2850	 5304.00	 5196.09	-1555.59	 3582.34
     30.3110	 5260.00	 5185.12	-1588.62	 3579.01
     30.3370	 5193.00	 5172.84	-1643.34	 3575.68
     30.3630	 5199.00	 5159.35	-1623.85	 3572.35
     30.3890	 5175.00	 5144.71	-1633.21	 3569.03
     30.4150	 5164.00	 5129.04	-1628.54	 3565.70
     30.4410	 5197.00	 5112.43	-1578.93	 3562.37
     30.4670	 5152.00	 5094.98	-1606.48	 3559.04
     30.4930	 5204.00	 5076.80	-1536.30	 3555.71
     30.5190	 5204.00	 5057.98	-1517.48	 3552.38
     30.5450	 5152.00	 5038.63	-1550.13	 3549.05
     30.5710	 5151.00	 5018.84	-1531.34	 3545.73
     30.5970	 5111.00	 4998.70	-1551.20	 3542.40
     30.6230	 4999.00	 4978.31	-1642.81	 3539.07
     30.6490	 5107.00	 4957.74	-1514.24	 3535.74
     30.6750	 4939.00	 4937.08	-1661.58	 3532.41
     30.7010	 4942.00	 4916.40	-1637.90	 3529.08
     30.7270	 4996.00	 4895.76	-1563.26	 3525.75
     30.7530	 4948.00	 4875.21	-1590.71	 3522.42
     30.7790	 4881.00	 4854.83	-1637.33	 3519.10
     30.8050	 4752.00	 4834.64	-1746.14	 3515.77
     30.8310	 4805.00	 4814.70	-1673.20	 3512.44
     30.8570	 4847.00	 4795.04	-1611.54	 3509.11
     30.8830	 4744.00	 4775.68	-1695.18	 3505.78
     30.9090	 4673.00	 4756.67	-1747.17	 3502.45
     30.9350	 4693.00	 4738.02	-1708.52	 3499.12
     30.9610	 4737.00	 4719.74	-1646.24	 3495.79
     30.9870	 4675.00	 4701.86	-1690.36	 3492.47
     31.0130	 4674.00	 4684.39	-1673.89	 3489.14
     31.0390	 4544.00	 4667.32	-1786.82	 3485.81
     31.0650	 4561.00	 4650.68	-1753.18	 3482.48
     31.0910	 4629.00	 4634.46	-1668.96	 3479.15
     31.1170	 4692.00	 4618.66	-1590.16	 3475.82
     31.1430	 4429.00	 4603.29	-1837.79	 3472.49
     31.1690	 4576.00	 4588.33	-1675.83	 3469.16
     31.1950	 4517.00	 4573.80	-1720.30	 3465.84
     31.2210	 4396.00	 4559.68	-1827.18	 3462.51
     31.2470	 4525.00	 4545.96	-1684.46	 3459.18
     31.2730	 4531.00	 4532.65	-1665.15	 3455.85
     31.2990	 4482.00	 4519.73	-1701.23	 3452.52
     31.3250	 4450.00	 4507.21	-1720.71	 3449.19
     31.3510	 4415.00	 4495.06	-1743.56	 3445.86
     31.3770	 4423.00	 4483.28	-1723.78	 3442.54
     31.4030	 4362.00	 4471.87	-1773.37	 3439.21
     31.4290	 4477.00	 4460.81	-1647.31	 3435.88
     31.4550	 4362.00	 4450.10	-1751.60	 3432.55
     31.4810	 4520.00	 4439.73	-1583.23	 3429.22
     31.5070	 4455.00	 4429.69	-1638.19	 3425.89
     31.5330	 4452.00	 4419.97	-1631.47	 3422.56
     31.5590	 4453.00	 4410.56	-1621.06	 3419.23
     31.5850	 4345.00	 4401.46	-1719.96	 3415.91
     31.6110	 4377.00	 4392.66	-1679.16	 3412.58
     31.6370	 4298.00	 4384.15	-1749.65	 3409.25
     31.6630	 4242.00	 4375.92	-1797.42	 3405.92
     31.6890	 4281.00	 4367.97	-1750.47	 3402.59
     31.7150	 4323.00	 4360.28	-1700.78	 3399.26
     31.7410	 4398.00	 4352.86	-1618.36	 3395.93
     31.7670	 4324.00	 4345.69	-1685.19	 3392.60
     31.7930	 4281.00	 4338.77	-1721.27	 3389.28
     31.8190	 4314.00	 4332.10	-1681.60	 3385.95
     31.8450	 4231.00	 4325.66	-1758.16	 3382.62
     31.8710	 4297.00	 4319.46	-1685.96	 3379.29
     31.8970	 4254.00	 4313.48	-1722.98	 3375.96
     31.9230	 4156.00	 4307.73	-1815.23	 3372.63
     31.9490	 4174.00	 4302.19	-1791.69	 3369.30
     31.9750	 4261.00	 4296.87	-1699.37	 3365.97
     32.0010	 4205.00	 4291.76	-1750.26	 3362.65
     32.0270	 4229.00	 4286.85	-1721.35	 3359.32
     32.0530	 4272.00	 4282.14	-1673.64	 3355.99
     32.0790	 4228.00	 4277.64	-1713.14	 3352.66
     32.1050	 4244.00	 4273.33	-1692.83	 3349.33
     32.1310	 4263.00	 4269.21	-1669.71	 3346.00
     32.1570	 4182.00	 4265.28	-1746.78	 3342.67
     32.1830	 4181.00	 4261.54	-1744.04	 3339.34
     32.2090	 4212.00	 4257.99	-1709.49	 3336.02
     32.2350	 4213.00	 4254.62	-1705.12	 3332.69
     32.2610	 4217.00	 4251.43	-1697.93	 3329.36
     32.2870	 4233.00	 4248.42	-1678.92	 3326.03
     32.3130	 4261.00	 4245.60	-1648.10	 3322.70
     32.3390	 4227.00	 4242.95	-1679.45	 3319.37
     32.3650	 4177.00	 4240.48	-1726.98	 3316.04
     32.3910	 4206.00	 4238.18	-1695.68	 3312.72
     32.4170	 4211.00	 4236.06	-1688.56	 3309.39
     32.4430	 4219.00	 4234.12	-1678.62	 3306.06
     32.4690	 4204.00	 4232.36	-1691.86	 3302.73
     32.4950	 4154.00	 4230.77	-1740.27	 3299.40
     32.5210	 4139.00	 4228.78	-1753.28	 3295.50
     32.5470	 4121.00	 4225.38	-1767.88	 3290.01
     32.5730	 4111.00	 4222.16	-1774.66	 3284.52
     32.5990	 4131.00	 4219.12	-1751.62	 3279.03
     32.6250	 4092.00	 4216.27	-1787.77	 3273.54
     32.6510	 4093.00	 4213.59	-1784.09	 3268.05
     32.6770	 4184.00	 4211.09	-1690.59	 3262.56
     32.7030	 4147.00	 4208.78	-1725.28	 3257.07
     32.7290	 4093.00	 4206.66	-1777.16	 3251.58
     32.7550	 4124.00	 4204.73	-1744.23	 3246.09
     32.7810	 4134.00	 4202.99	-1732.49	 3240.60
     32.8070	 4139.00	 4201.45	-1725.95	 3235.11
     32.8330	 4190.00	 4200.10	-1673.60	 3229.62
     32.8590	 4146.00	 4198.95	-1716.45	 3224.13
     32.8850	 4097.00	 4198.01	-1764.51	 3218.64
     32.9110	 4159.00	 4197.27	-1701.77	 3213.15
     32.9370	 4196.00	 4196.75	-1664.25	 3207.66
     32.9630	 4184.00	 4196.44	-1675.94	 3202.17
     32.9890	 4176.00	 4196.36	-1683.86	 3196.67
     33.0150	 4176.00	 4196.50	-1684.00	 3191.19
     33.0410	 4156.00	 4196.87	-1704.37	 3185.69
     33.0670	 4110.00	 4197.47	-1750.97	 3180.20
     33.0930	 4115.00	 4198.32	-1746.82	 3174.71
     33.1190	 4143.00	 4199.41	-1719.91	 3169.22
     33.1450	 4220.00	 4200.75	-1644.25	 3163.73
     33.1710	 4064.00	 4202.36	-1801.86	 3158.24
     33.1970	 4087.00	 4204.23	-1780.73	 3152.75
     33.2230	 4120.00	 4206.37	-1749.87	 3147.26
     33.2490	 4081.00	 4208.79	-1791.29	 3141.77
     33.2750	 4054.00	 4211.50	-1821.00	 3136.28
     33.3010	 4137.00	 4214.51	-1741.01	 3130.79
     33.3270	 4073.00	 4217.83	-1808.33	 3125.30
     33.3530	 4134.00	 4221.46	-1750.96	 3119.81
     33.3790	 4095.00	 4225.41	-1793.91	 3114.32
     33.4050	 4157.00	 4229.69	-1736.19	 3108.83
     33.4310	 4206.00	 4234.32	-1691.82	 3103.34
     33.4570	 4090.00	 4239.31	-1812.81	 3097.85
     33.4830	 4158.00	 4244.66	-1750.16	 3092.36
     33.5090	 4356.00	 4250.38	-1557.88	 3086.87
     33.5350	 4246.00	 4256.50	-1674.00	 3081.38
     33.5610	 4251.00	 4263.02	-1675.52	 3075.89
     33.5870	 4127.00	 4269.95	-1806.45	 3070.40
     33.6130	 4217.00	 4277.32	-1723.82	 3064.91
     33.6390	 4212.00	 4285.13	-1736.63	 3059.42
     33.6650	 4193.00	 4293.39	-1763.89	 3053.93
     33.6910	 4361.00	 4302.14	-1604.64	 3048.44
     33.7170	 4195.00	 4311.37	-1779.87	 3042.95
     33.7430	 4294.00	 4321.11	-1690.61	 3037.46
     33.7690	 4214.00	 4331.37	-1780.87	 3031.97
     33.7950	 4256.00	 4342.18	-1749.68	 3026.48
     33.8210	 4423.00	 4353.54	-1594.04	 3020.99
     33.8470	 4366.00	 4365.49	-1662.99	 3015.50
     33.8730	 4357.00	 4378.04	-1684.54	 3010.01
     33.8990	 4380.00	 4391.22	-1674.72	 3004.52
     33.9250	 4387.00	 4405.03	-1681.53	 2999.03
     33.9510	 4285.00	 4419.51	-1798.01	 2993.54
     33.9770	 4333.00	 4434.68	-1765.18	 2988.05
     34.0030	 4343.00	 4450.56	-1771.06	 2982.56
     34.0290	 4302.00	 4467.18	-1828.68	 2977.07
     34.0550	 4278.00	 4484.55	-1870.05	 2971.58
     34.0810	 4484.00	 4502.72	-1682.22	 2966.09
     34.1070	 4473.00	 4521.69	-1712.19	 2960.60
     34.1330	 4523.00	 4541.50	-1682.00	 2955.11
     34.1590	 4481.00	 4562.18	-1744.68	 2949.62
     34.1850	 4458.00	 4583.74	-1789.24	 2944.13
     34.2110	 4419.00	 4606.23	-1850.73	 2938.64
     34.2370	 4630.00	 4629.65	-1663.15	 2933.15
     34.2630	 4705.00	 4654.05	-1612.55	 2927.66
     34.2890	 4623.00	 4679.46	-1719.96	 2922.17
     34.3150	 4524.00	 4705.88	-1845.38	 2916.68
     34.3410	 4627.00	 4733.35	-1769.85	 2911.19
     34.3670	 4635.00	 4761.91	-1790.41	 2905.70
     34.3930	 4708.00	 4791.56	-1747.06	 2900.21
     34.4190	 4706.00	 4822.33	-1779.83	 2894.72
     34.4450	 4940.00	 4854.25	-1577.75	 2889.23
     34.4710	 4940.00	 4887.33	-1610.83	 2883.74
     34.4970	 4830.00	 4921.58	-1755.08	 2878.25
     34.5230	 4999.00	 4957.02	-1621.52	 2872.76
     34.5490	 4965.00	 4993.66	-1692.16	 2867.27
     34.5750	 5022.00	 5031.50	-1673.00	 2861.78
     34.6010	 5139.00	 5070.54	-1595.04	 2856.29
     34.6270	 5195.00	 5110.77	-1579.27	 2850.80
     34.6530	 5213.00	 5152.18	-1602.68	 2845.31
     34.6790	 5184.00	 5194.74	-1674.24	 2839.81
     34.7050	 5158.00	 5238.44	-1743.94	 2834.32
     34.7310	 5257.00	 5283.22	-1689.72	 2828.83
     34.7570	 5347.00	 5329.04	-1645.54	 2823.34
     34.7830	 5385.00	 5375.85	-1654.35	 2817.85
     34.8090	 5460.00	 5423.56	-1627.06	 2812.36
     34.8350	 5610.00	 5472.08	-1525.58	 2806.87
     34.8610	 5669.00	 5521.34	-1515.84	 2801.38
     34.8870	 5689.00	 5571.19	-1545.69	 2795.89
     34.9130	 5708.00	 5621.52	-1577.02	 2790.40
     34.9390	 5805.00	 5672.16	-1530.66	 2784.91
     34.9650	 5924.00	 5722.97	-1462.47	 2779.42
     34.9910	 5927.00	 5773.75	-1510.25	 2773.93
     35.0170	 5926.00	 5824.30	-1561.80	 2768.44
     35.0430	 5990.00	 5874.40	-1547.90	 2762.95
     35.0690	 6032.00	 5923.81	-1555.31	 2757.46
     35.0950	 6151.00	 5972.30	-1484.80	 2751.97
     35.1210	 6211.00	 6019.58	-1472.08	 2746.48
     35.1470	 6196.00	 6065.37	-1532.87	 2740.99
     35.1730	 6261.00	 6109.40	-1511.90	 2735.50
     35.1990	 6354.00	 6151.36	-1460.86	 2730.01
     35.2250	 6414.00	 6190.95	-1440.45	 2724.52
     35.2510	 6398.00	 6227.87	-1493.37	 2719.03
     35.2770	 6508.00	 6261.84	-1417.34	 2713.54
     35.3030	 6654.00	 6292.56	-1302.06	 2708.05
     35.3290	 6571.00	 6319.74	-1412.24	 2702.56
     35.3550	 6530.00	 6343.15	-1476.65	 2697.07
     35.3810	 6568.00	 6362.55	-1458.05	 2691.58
     35.4070	 6573.00	 6377.72	-1468.22	 2686.09
     35.4330	 6592.00	 6388.50	-1460.00	 2680.60
     35.4590	 6578.00	 6394.74	-1480.24	 2675.11
     35.4850	 6537.00	 6396.33	-1522.83	 2669.62
     35.5110	 6415.00	 6393.23	-1641.73	 2664.13
     35.5370	 6593.00	 6385.41	-1455.91	 2658.64
     35.5630	 6521.00	 6372.88	-1515.38	 2653.15
     35.5890	 6469.00	 6355.70	-1550.20	 2647.66
     35.6150	 6590.00	 6333.98	-1407.48	 2642.17
     35.6410	 6522.00	 6307.86	-1449.36	 2636.68
     35.6670	 6406.00	 6277.51	-1535.01	 2631.19
     35.6930	 6424.00	 6243.14	-1482.64	 2625.70
     35.7190	 6482.00	 6204.97	-1386.47	 2620.21
     35.7450	 6401.00	 6163.27	-1425.77	 2614.72
     35.7710	 6278.00	 6118.30	-1503.80	 2609.23
     35.7970	 6081.00	 6070.35	-1652.85	 2603.74
     35.8230	 6027.00	 6019.72	-1656.22	 2598.25
     35.8490	 6138.00	 5966.71	-1492.21	 2592.76
     35.8750	 6003.00	 5911.61	-1572.11	 2587.27
     35.9010	 6027.00	 5854.73	-1491.23	 2581.78
     35.9270	 5817.00	 5796.34	-1642.84	 2576.29
     35.9530	 5707.00	 5736.75	-1693.25	 2570.80
     35.9790	 5591.00	 5676.20	-1748.70	 2565.31
     36.0050	 5677.00	 5614.95	-1601.45	 2559.82
     36.0310	 5577.00	 5553.23	-1639.73	 2554.33
     36.0570	 5440.00	 5491.29	-1714.79	 2548.84
     36.0830	 5275.00	 5429.29	-1817.79	 2543.35
     36.1090	 5272.00	 5367.44	-1758.94	 2537.86
     36.1350	 5117.00	 5305.91	-1852.41	 2532.37
     36.1610	 5146.00	 5244.85	-1762.35	 2526.88
     36.1870	 5103.00	 5184.37	-1744.87	 2521.39
     36.2130	 5165.00	 5124.61	-1623.11	 2515.90
     36.2390	 4934.00	 5065.66	-1795.16	 2510.41
     36.2650	 4951.00	 5007.62	-1720.12	 2504.92
     36.2910	 4935.00	 4950.55	-1679.05	 2499.43
     36.3170	 4859.00	 4894.52	-1699.02	 2493.94
     36.3430	 4692.00	 4839.57	-1811.07	 2488.44
     36.3690	 4651.00	 4785.76	-1798.26	 2482.96
     36.3950	 4470.00	 4733.10	-1926.60	 2477.46
     36.4210	 4419.00	 4681.62	-1926.12	 2471.97
     36.4470	 4374.00	 4631.33	-1920.83	 2466.48
     36.4730	 4321.00	 4582.25	-1924.75	 2460.99
     36.4990	 4390.00	 4534.36	-1807.86	 2455.50
     36.5250	 4263.00	 4487.67	-1888.17	 2450.01
     36.5510	 4259.00	 4442.18	-1846.68	 2444.52
     36.5770	 4264.00	 4397.87	-1797.37	 2439.03
     36.6030	 4209.00	 4354.71	-1809.21	 2433.54
     36.6290	 4158.00	 4312.71	-1818.21	 2428.05
     36.6550	 4039.00	 4271.84	-1896.34	 2422.56
     36.6810	 3992.00	 4232.06	-1903.56	 2417.07
     36.7070	 4002.00	 4193.37	-1854.87	 2411.58
     36.7330	 4042.00	 4155.74	-1777.24	 2406.09
     36.7590	 4009.00	 4119.15	-1773.65	 2400.60
     36.7850	 3958.00	 4083.56	-1789.06	 2395.11
     36.8110	 3838.00	 4048.96	-1874.46	 2389.62
     36.8370	 3912.00	 4015.32	-1766.82	 2384.13
     36.8630	 3916.00	 3982.62	-1730.12	 2378.64
     36.8890	 3837.00	 3950.83	-1777.33	 2373.15
     36.9150	 3839.00	 3919.92	-1744.42	 2367.66
     36.9410	 3829.00	 3889.88	-1724.38	 2362.17
     36.9670	 3803.00	 3860.69	-1721.19	 2356.68
     36.9930	 3678.00	 3832.31	-1817.81	 2351.19
     37.0190	 3771.00	 3804.71	-1697.21	 2345.70
     37.0450	 3758.00	 3777.88	-1683.38	 2340.21
     37.0710	 3701.00	 3751.77	-1714.27	 2334.72
     37.0970	 3656.00	 3726.34	-1733.84	 2329.23
     37.1230	 3644.00	 3701.53	-1721.03	 2323.74
     37.1490	 3700.00	 3677.28	-1640.78	 2318.25
     37.1750	 3707.00	 3653.52	-1610.02	 2312.76
     37.2010	 3683.00	 3630.18	-1610.68	 2307.27
     37.2270	 3628.00	 3607.22	-1642.72	 2301.78
     37.2530	 3657.00	 3584.57	-1591.07	 2296.29
     37.2790	 3612.00	 3562.24	-1613.74	 2290.80
     37.3050	 3665.00	 3540.20	-1538.70	 2285.31
     37.3310	 3697.00	 3518.48	-1484.98	 2279.82
     37.3570	 3575.00	 3497.10	-1585.60	 2274.33
     37.3830	 3542.00	 3476.08	-1597.58	 2268.84
     37.4090	 3560.00	 3457.78	-1561.28	 2265.67
     37.4350	 3477.00	 3441.72	-1628.22	 2264.35
     37.4610	 3436.00	 3426.09	-1653.59	 2263.02
     37.4870	 3388.00	 3410.89	-1686.39	 2261.70
     37.5130	 3364.00	 3396.12	-1695.62	 2260.37
     37.5390	 3451.00	 3381.76	-1594.26	 2259.05
     37.5650	 3446.00	 3367.81	-1585.31	 2257.72
     37.5910	 3389.00	 3354.25	-1628.75	 2256.40
     37.6170	 3350.00	 3341.07	-1654.57	 2255.08
     37.6430	 3329.00	 3328.25	-1662.75	 2253.75
     37.6690	 3309.00	 3315.79	-1670.29	 2252.43
     37.6950	 3238.00	 3303.66	-1729.16	 2251.10
     37.7210	 3180.00	 3291.85	-1775.35	 2249.78
     37.7470	 3242.00	 3280.35	-1701.85	 2248.45
     37.7730	 3218.00	 3269.15	-1714.65	 2247.13
     37.7990	 3140.00	 3258.23	-1781.73	 2245.80
     37.8250	 3158.00	 3247.59	-1753.09	 2244.48
     37.8510	 3165.00	 3237.21	-1735.71	 2243.16
     37.8770	 3158.00	 3227.09	-1732.59	 2241.83
     37.9030	 3134.00	 3217.22	-1746.72	 2240.51
     37.9290	 3125.00	 3207.58	-1746.08	 2239.18
     37.9550	 3113.00	 3198.17	-1748.67	 2237.86
     37.9810	 3108.00	 3188.98	-1744.48	 2236.53
     38.0070	 3091.00	 3180.00	-1752.50	 2235.21
     38.0330	 3071.00	 3171.23	-1763.73	 2233.88
     38.0590	 3121.00	 3162.67	-1705.17	 2232.56
     38.0850	 3147.00	 3154.29	-1670.79	 2231.24
     38.1110	 3140.00	 3146.11	-1669.61	 2229.91
     38.1370	 3097.00	 3138.10	-1704.60	 2228.59
     38.1630	 3158.00	 3130.27	-1635.77	 2227.26
     38.1890	 3170.00	 3122.61	-1616.11	 2225.94
     38.2150	 3063.00	 3115.12	-1715.62	 2224.61
     38.2410	 3043.00	 3107.78	-1728.28	 2223.29
     38.2670	 2997.00	 3100.60	-1767.10	 2221.96
     38.2930	 3041.00	 3093.57	-1716.07	 2220.64
     38.3190	 3079.00	 3086.69	-1671.19	 2219.32
     38.3450	 2981.00	 3079.95	-1762.45	 2217.99
     38.3710	 3003.00	 3073.34	-1733.84	 2216.67
     38.3970	 2969.00	 3066.87	-1761.37	 2215.34
     38.4230	 2872.00	 3060.53	-1852.03	 2214.02
     38.4490	 2992.00	 3054.31	-1725.81	 2212.69
     38.4750	 3028.00	 3048.22	-1683.72	 2211.37
     38.5010	 3016.00	 3042.24	-1689.74	 2210.04
     38.5270	 2983.00	 3036.38	-1716.88	 2208.72
     38.5530	 3022.00	 3030.64	-1672.14	 2207.40
     38.5790	 3054.00	 3025.00	-1634.50	 2206.07
     38.6050	 3005.00	 3019.47	-1677.97	 2204.75
     38.6310	 2977.00	 3014.04	-1700.54	 2203.42
     38.6570	 3016.00	 3008.71	-1656.21	 2202.10
     38.6830	 3032.00	 3003.48	-1634.98	 2200.77
     38.7090	 2972.00	 2998.34	-1689.84	 2199.45
     38.7350	 2902.00	 2993.30	-1754.80	 2198.12
     38.7610	 2907.00	 2988.35	-1744.85	 2196.80
     38.7870	 2981.00	 2983.49	-1665.99	 2195.48
     38.8130	 2984.00	 2978.71	-1658.21	 2194.15
     38.8390	 2983.00	 2974.01	-1654.51	 2192.83
     38.8650	 2977.00	 2969.40	-1655.90	 2191.50
     38.8910	 2867.00	 2964.87	-1761.37	 2190.18
     38.9170	 2849.00	 2960.41	-1774.91	 2188.85
     38.9430	 2910.00	 2956.04	-1709.54	 2187.53
     38.9690	 2908.00	 2951.73	-1707.23	 2186.20
     38.9950	 2989.00	 2947.50	-1622.00	 2184.88
     39.0210	 2770.00	 2943.34	-1836.84	 2183.55
     39.0470	 2913.00	 2939.25	-1689.75	 2182.23
     39.0730	 2819.00	 2935.22	-1779.72	 2180.91
     39.0990	 2877.00	 2931.26	-1717.76	 2179.58
     39.1250	 2910.00	 2927.37	-1680.87	 2178.26
     39.1510	 2921.00	 2923.54	-1666.04	 2176.93
     39.1770	 2926.00	 2919.77	-1657.27	 2175.61
     39.2030	 2919.00	 2916.07	-1660.57	 2174.28
     39.2290	 2814.00	 2912.42	-1761.92	 2172.96
     39.2550	 2864.00	 2908.83	-1708.33	 2171.63
     39.2810	 2744.00	 2905.30	-1824.80	 2170.31
     39.3070	 2750.00	 2901.82	-1815.32	 2168.99
     39.3330	 2905.00	 2898.40	-1656.90	 2167.66
     39.3590	 2861.00	 2895.04	-1697.54	 2166.34
     39.3850	 2850.00	 2891.73	-1705.23	 2165.01
     39.4110	 2857.00	 2888.47	-1694.97	 2163.69
     39.4370	 2900.00	 2885.26	-1648.76	 2162.36
     39.4630	 2875.00	 2882.10	-1670.60	 2161.04
     39.4890	 2846.00	 2878.99	-1696.49	 2159.71
     39.5150	 2808.00	 2875.93	-1731.43	 2158.39
     39.5410	 2796.00	 2872.92	-1740.42	 2157.07
     39.5670	 2850.00	 2869.96	-1683.46	 2155.74
     39.5930	 2890.00	 2867.04	-1640.54	 2154.42
     39.6190	 2807.00	 2864.18	-1720.68	 2153.09
     39.6450	 2874.00	 2861.35	-1650.85	 2151.77
     39.6710	 2873.00	 2858.57	-1649.07	 2150.44
     39.6970	 2770.00	 2855.84	-1749.34	 2149.12
     39.7230	 2828.00	 2853.15	-1688.65	 2147.79
     39.7490	 2704.00	 2850.51	-1810.01	 2146.47
     39.7750	 2786.00	 2847.90	-1725.40	 2145.15
     39.8010	 2884.00	 2845.34	-1624.84	 2143.82
     39.8270	 2904.00	 2842.83	-1602.33	 2142.50
     39.8530	 2971.00	 2840.35	-1532.85	 2141.17
     39.8790	 2881.00	 2837.92	-1620.42	 2139.85
     39.9050	 2798.00	 2835.53	-1701.03	 2138.52
     39.9310	 2756.00	 2833.18	-1740.68	 2137.20
     39.9570	 2741.00	 2830.87	-1753.37	 2135.87
     39.9830	 2765.00	 2828.60	-1727.10	 2134.55
     40.0090	 2763.00	 2826.38	-1726.88	 2133.23
     40.0350	 2784.00	 2824.19	-1703.69	 2131.90
     40.0610	 2806.00	 2822.04	-1679.54	 2130.58
     40.0870	 2792.00	 2819.94	-1691.44	 2129.25
     40.1130	 2744.00	 2817.87	-1737.37	 2127.93
     40.1390	 2768.00	 2815.85	-1711.35	 2126.60
     40.1650	 2814.00	 2813.86	-1663.36	 2125.28
     40.1910	 2797.00	 2811.92	-1678.42	 2123.95
     40.2170	 2790.00	 2810.02	-1683.52	 2122.63
     40.2430	 2796.00	 2808.16	-1675.66	 2121.31
     40.2690	 2781.00	 2806.33	-1688.83	 2119.98
     40.2950	 2754.00	 2804.55	-1714.05	 2118.66
     40.3210	 2793.00	 2802.81	-1673.31	 2117.33
     40.3470	 2787.00	 2801.12	-1677.62	 2116.01
     40.3730	 2750.00	 2799.46	-1712.96	 2114.68
     40.3990	 2792.00	 2797.84	-1669.34	 2113.36
     40.4250	 2784.00	 2796.27	-1675.77	 2112.03
     40.4510	 2775.00	 2794.74	-1683.24	 2110.71
     40.4770	 2815.00	 2793.26	-1641.76	 2109.39
     40.5030	 2787.00	 2791.82	-1668.32	 2108.06
     40.5290	 2741.00	 2790.42	-1712.92	 2106.74
     40.5550	 2756.00	 2789.06	-1696.56	 2105.41
     40.5810	 2820.00	 2787.76	-1631.26	 2104.09
     40.6070	 2825.00	 2786.49	-1624.99	 2102.76
     40.6330	 2796.00	 2785.28	-1652.78	 2101.44
     40.6590	 2842.00	 2784.11	-1605.61	 2100.11
     40.6850	 2826.00	 2782.99	-1620.49	 2098.79
     40.7110	 2779.00	 2781.92	-1666.42	 2097.46
     40.7370	 2766.00	 2780.90	-1678.40	 2096.14
     40.7630	 2791.00	 2779.94	-1652.44	 2094.82
     40.7890	 2886.00	 2779.02	-1556.52	 2093.49
     40.8150	 2888.00	 2778.15	-1553.65	 2092.17
     40.8410	 2768.00	 2777.35	-1672.85	 2090.84
     40.8670	 2830.00	 2776.59	-1610.09	 2089.52
     40.8930	 2876.00	 2775.89	-1563.39	 2088.19
     40.9190	 2856.00	 2775.26	-1582.76	 2086.87
     40.9450	 2853.00	 2774.68	-1585.18	 2085.54
     40.9710	 2881.00	 2774.16	-1556.66	 2084.22
     40.9970	 2841.00	 2773.77	-1596.27	 2082.96
     41.0230	 2869.00	 2773.51	-1568.01	 2081.77
     41.0490	 2804.00	 2773.33	-1632.83	 2080.59
     41.0750	 2823.00	 2773.21	-1613.71	 2079.40
     41.1010	 2838.00	 2773.16	-1598.66	 2078.22
     41.1270	 2787.00	 2773.19	-1649.69	 2077.03
     41.1530	 2801.00	 2773.29	-1635.79	 2075.85
     41.1790	 2775.00	 2773.46	-1661.96	 2074.66
     41.2050	 2825.00	 2773.72	-1612.22	 2073.48
     41.2310	 2861.00	 2774.05	-1576.55	 2072.29
     41.2570	 2866.00	 2774.47	-1571.97	 2071.11
     41.2830	 2874.00	 2774.98	-1564.48	 2069.92
     41.3090	 2883.00	 2775.58	-1556.08	 2068.73
     41.3350	 2828.00	 2776.27	-1611.77	 2067.55
     41.3610	 2876.00	 2777.06	-1564.56	 2066.36
     41.3870	 2802.00	 2777.94	-1639.44	 2065.18
     41.4130	 2886.00	 2778.93	-1556.43	 2063.99
     41.4390	 2861.00	 2780.03	-1582.53	 2062.81
     41.4650	 2872.00	 2781.24	-1572.74	 2061.62
     41.4910	 2830.00	 2782.57	-1616.07	 2060.44
     41.5170	 2876.00	 2784.01	-1571.51	 2059.25
     41.5430	 2826.00	 2785.58	-1623.08	 2058.07
     41.5690	 2921.00	 2787.28	-1529.78	 2056.88
     41.5950	 2875.00	 2789.12	-1577.62	 2055.70
     41.6210	 2781.00	 2791.09	-1673.59	 2054.51
     41.6470	 2853.00	 2793.22	-1603.72	 2053.33
     41.6730	 2839.00	 2795.49	-1619.99	 2052.14
     41.6990	 2844.00	 2797.92	-1617.42	 2050.96
     41.7250	 2899.00	 2800.52	-1565.02	 2049.77
     41.7510	 2896.00	 2803.30	-1570.80	 2048.58
     41.7770	 2895.00	 2806.25	-1574.75	 2047.40
     41.8030	 2861.00	 2809.39	-1611.89	 2046.21
     41.8290	 2787.00	 2812.73	-1689.23	 2045.03
     41.8550	 2832.00	 2816.27	-1647.77	 2043.84
     41.8810	 2939.00	 2820.03	-1544.53	 2042.66
     41.9070	 2941.00	 2824.02	-1546.52	 2041.47
     41.9330	 2833.00	 2828.24	-1658.74	 2040.29
     41.9590	 2863.00	 2832.70	-1633.20	 2039.10
     41.9850	 2930.00	 2837.43	-1570.93	 2037.92
     42.0110	 2874.00	 2842.43	-1631.93	 2036.73
     42.0370	 2882.00	 2847.72	-1629.22	 2035.55
     42.0630	 2944.00	 2853.30	-1572.80	 2034.36
     42.0890	 2935.00	 2859.20	-1587.70	 2033.18
     42.1150	 2924.00	 2865.43	-1604.93	 2031.99
     42.1410	 2991.00	 2872.02	-1544.52	 2030.80
     42.1670	 2935.00	 2878.97	-1607.47	 2029.62
     42.1930	 2896.00	 2886.31	-1653.81	 2028.43
     42.2190	 2925.00	 2894.06	-1632.56	 2027.25
     42.2450	 2893.00	 2902.25	-1672.75	 2026.06
     42.2710	 2957.00	 2910.90	-1617.40	 2024.88
     42.2970	 2883.00	 2920.05	-1700.55	 2023.69
     42.3230	 2847.00	 2929.72	-1746.22	 2022.51
     42.3490	 2912.00	 2939.95	-1691.45	 2021.32
     42.3750	 2892.00	 2950.77	-1722.27	 2020.14
     42.4010	 2945.00	 2962.25	-1680.75	 2018.95
     42.4270	 2887.00	 2974.41	-1750.91	 2017.77
     42.4530	 2777.00	 2987.33	-1873.83	 2016.58
     42.4790	 2859.00	 3001.06	-1805.56	 2015.40
     42.5050	 2904.00	 3015.67	-1775.17	 2014.21
     42.5310	 2877.00	 3031.25	-1817.75	 2013.02
     42.5570	 2897.00	 3047.90	-1814.40	 2011.84
     42.5830	 2965.00	 3065.73	-1764.23	 2010.65
     42.6090	 2962.00	 3084.87	-1786.37	 2009.47
     42.6350	 2940.00	 3105.47	-1828.97	 2008.28
     42.6610	 3034.00	 3127.70	-1757.20	 2007.10
     42.6870	 3059.00	 3151.78	-1756.28	 2005.91
     42.7130	 3095.00	 3177.94	-1746.44	 2004.73
     42.7390	 3064.00	 3206.46	-1805.96	 2003.54
     42.7650	 3131.00	 3237.65	-1770.15	 2002.36
     42.7910	 3266.00	 3271.90	-1669.40	 2001.17
     42.8170	 3366.00	 3309.63	-1607.13	 1999.99
     42.8430	 3465.00	 3351.31	-1549.81	 1998.80
     42.8690	 3482.00	 3397.48	-1578.98	 1997.62
     42.8950	 3550.00	 3448.75	-1562.25	 1996.43
     42.9210	 3652.00	 3505.72	-1517.22	 1995.25
     42.9470	 3736.00	 3569.03	-1496.53	 1994.06
     42.9730	 3867.00	 3639.25	-1435.75	 1992.87
     42.9990	 3966.00	 3716.86	-1414.36	 1991.69
     43.0250	 3975.00	 3802.03	-1490.53	 1990.50
     43.0510	 4059.00	 3894.47	-1498.97	 1989.32
     43.0770	 4178.00	 3993.20	-1478.70	 1988.13
     43.1030	 4184.00	 4096.26	-1575.76	 1986.95
     43.1290	 4205.00	 4200.45	-1658.95	 1985.76
     43.1550	 4212.00	 4301.21	-1752.71	 1984.58
     43.1810	 4250.00	 4392.85	-1806.35	 1983.39
     43.2070	 4370.00	 4469.16	-1762.66	 1982.21
     43.2330	 4412.00	 4524.31	-1775.81	 1981.02
     43.2590	 4397.00	 4553.96	-1820.46	 1979.84
     43.2850	 4418.00	 4555.95	-1801.45	 1978.65
     43.3110	 4406.00	 4530.50	-1788.00	 1977.47
     43.3370	 4323.00	 4479.91	-1820.41	 1976.28
     43.3630	 4272.00	 4408.02	-1799.52	 1975.09
     43.3890	 4202.00	 4319.55	-1781.05	 1973.91
     43.4150	 4260.00	 4219.67	-1623.17	 1972.72
     43.4410	 4173.00	 4113.48	-1603.98	 1971.54
     43.4670	 4076.00	 4005.54	-1593.04	 1970.35
     43.4930	 4074.00	 3899.50	-1489.00	 1969.17
     43.5190	 4035.00	 3798.08	-1426.58	 1967.98
     43.5450	 3975.00	 3702.96	-1391.46	 1966.80
     43.5710	 3825.00	 3615.05	-1453.55	 1965.61
     43.5970	 3601.00	 3534.58	-1597.08	 1964.43
     43.6230	 3635.00	 3461.41	-1489.91	 1963.24
     43.6490	 3565.00	 3395.14	-1493.64	 1962.06
     43.6750	 3447.00	 3335.23	-1551.73	 1960.87
     43.7010	 3348.00	 3281.06	-1596.56	 1959.69
     43.7270	 3362.00	 3232.05	-1533.55	 1958.50
     43.7530	 3217.00	 3187.62	-1634.12	 1957.31
     43.7790	 3164.00	 3147.27	-1646.77	 1956.13
     43.8050	 3104.00	 3110.49	-1669.99	 1954.94
     43.8310	 3038.00	 3076.89	-1702.39	 1953.76
     43.8570	 2951.00	 3046.08	-1758.58	 1952.57
     43.8830	 2983.00	 3017.74	-1698.24	 1951.39
     43.9090	 2871.00	 2991.59	-1784.09	 1950.20
     43.9350	 2858.00	 2967.38	-1772.88	 1949.02
     43.9610	 2831.00	 2944.90	-1777.40	 1947.83
     43.9870	 2779.00	 2923.97	-1808.47	 1946.65
     44.0130	 2764.00	 2904.41	-1803.91	 1945.46
     44.0390	 2708.00	 2886.09	-1841.59	 1944.28
     44.0650	 2802.00	 2868.90	-1730.40	 1943.09
     44.0910	 2770.00	 2852.72	-1746.22	 1941.91
     44.1170	 2728.00	 2837.46	-1772.96	 1940.72
     44.1430	 2658.00	 2823.05	-1828.55	 1939.54
     44.1690	 2690.00	 2809.40	-1782.90	 1938.35
     44.1950	 2741.00	 2796.46	-1718.96	 1937.16
     44.2210	 2610.00	 2784.16	-1837.66	 1935.98
     44.2470	 2702.00	 2772.47	-1733.97	 1934.79
     44.2730	 2677.00	 2761.33	-1747.83	 1933.61
     44.2990	 2674.00	 2750.70	-1740.20	 1932.42
     44.3250	 2588.00	 2740.55	-1816.05	 1931.24
     44.3510	 2713.00	 2730.84	-1681.34	 1930.05
     44.3770	 2684.00	 2721.55	-1701.05	 1928.87
     44.4030	 2679.00	 2712.65	-1697.15	 1927.68
     44.4290	 2695.00	 2704.11	-1672.61	 1926.50
     44.4550	 2783.00	 2695.91	-1576.41	 1925.31
     44.4810	 2736.00	 2688.03	-1615.53	 1924.13
     44.5070	 2693.00	 2680.46	-1650.96	 1922.94
     44.5330	 2643.00	 2673.16	-1693.66	 1921.76
     44.5590	 2567.00	 2666.13	-1762.63	 1920.57
     44.5850	 2705.00	 2659.36	-1617.86	 1919.38
     44.6110	 2712.00	 2653.28	-1604.78	 1918.65
     44.6370	 2654.00	 2647.48	-1656.98	 1917.99
     44.6630	 2607.00	 2641.91	-1698.41	 1917.32
     44.6890	 2627.00	 2636.53	-1673.03	 1916.66
     44.7150	 2626.00	 2631.35	-1668.85	 1915.99
     44.7410	 2674.00	 2626.35	-1615.85	 1915.33
     44.7670	 2648.00	 2621.53	-1637.03	 1914.66
     44.7930	 2665.00	 2616.87	-1615.37	 1914.00
     44.8190	 2629.00	 2612.37	-1646.87	 1913.33
     44.8450	 2534.00	 2608.01	-1737.51	 1912.67
     44.8710	 2507.00	 2603.81	-1760.31	 1912.00
     44.8970	 2569.00	 2599.74	-1694.24	 1911.34
     44.9230	 2617.00	 2595.80	-1642.30	 1910.67
     44.9490	 2540.00	 2591.98	-1715.48	 1910.00
     44.9750	 2494.00	 2588.28	-1757.78	 1909.34
     45.0010	 2523.00	 2584.71	-1725.21	 1908.67
     45.0270	 2552.00	 2581.23	-1692.73	 1908.01
     45.0530	 2460.00	 2577.87	-1781.37	 1907.34
     45.0790	 2589.00	 2574.61	-1649.11	 1906.68
     45.1050	 2558.00	 2571.44	-1676.94	 1906.01
     45.1310	 2566.00	 2568.37	-1665.87	 1905.35
     45.1570	 2572.00	 2565.39	-1656.89	 1904.68
     45.1830	 2561.00	 2562.49	-1664.99	 1904.02
     45.2090	 2484.00	 2559.68	-1739.18	 1903.35
     45.2350	 2466.00	 2556.95	-1754.45	 1902.69
     45.2610	 2538.00	 2554.30	-1679.80	 1902.02
     45.2870	 2445.00	 2551.72	-1770.22	 1901.36
     45.3130	 2465.00	 2549.22	-1747.72	 1900.69
     45.3390	 2505.00	 2546.78	-1705.28	 1900.03
     45.3650	 2525.00	 2544.42	-1682.92	 1899.36
     45.3910	 2487.00	 2542.11	-1718.61	 1898.69
     45.4170	 2491.00	 2539.88	-1712.38	 1898.03
     45.4430	 2559.00	 2537.71	-1642.21	 1897.36
     45.4690	 2546.00	 2535.59	-1653.09	 1896.70
     45.4950	 2547.00	 2533.54	-1650.04	 1896.03
     45.5210	 2510.00	 2531.55	-1685.05	 1895.37
     45.5470	 2425.00	 2529.60	-1768.10	 1894.70
     45.5730	 2463.00	 2527.72	-1728.22	 1894.04
     45.5990	 2506.00	 2525.89	-1683.39	 1893.37
     45.6250	 2498.00	 2524.11	-1689.61	 1892.71
     45.6510	 2475.00	 2522.38	-1710.88	 1892.04
     45.6770	 2470.00	 2520.70	-1714.20	 1891.38
     45.7030	 2461.00	 2519.07	-1721.57	 1890.71
     45.7290	 2481.00	 2517.49	-1699.99	 1890.05
     45.7550	 2521.00	 2515.96	-1658.46	 1889.38
     45.7810	 2456.00	 2514.47	-1721.97	 1888.72
     45.8070	 2431.00	 2513.03	-1745.53	 1888.05
     45.8330	 2466.00	 2511.63	-1709.13	 1887.38
     45.8590	 2481.00	 2510.28	-1692.78	 1886.72
     45.8850	 2472.00	 2508.97	-1700.47	 1886.05
     45.9110	 2487.00	 2507.71	-1684.21	 1885.39
     45.9370	 2426.00	 2506.48	-1743.98	 1884.72
     45.9630	 2441.00	 2505.30	-1727.80	 1884.06
     45.9890	 2477.00	 2504.17	-1690.67	 1883.39
     46.0150	 2419.00	 2503.07	-1747.57	 1882.73
     46.0410	 2378.00	 2502.02	-1787.52	 1882.06
     46.0670	 2462.00	 2501.00	-1702.50	 1881.40
     46.0930	 2489.00	 2500.03	-1674.53	 1880.73
     46.1190	 2505.00	 2499.10	-1657.60	 1880.07
     46.1450	 2496.00	 2498.64	-1666.14	 1879.40
     46.1710	 2379.00	 2497.79	-1782.29	 1878.74
     46.1970	 2362.00	 2496.97	-1798.47	 1878.07
     46.2230	 2445.00	 2496.20	-1714.70	 1877.41
     46.2490	 2424.00	 2495.46	-1734.96	 1876.74
     46.2750	 2473.00	 2494.76	-1685.26	 1876.07
     46.3010	 2422.00	 2494.32	-1735.82	 1875.41
     46.3270	 2458.00	 2493.70	-1699.20	 1874.74
     46.3530	 2431.00	 2493.11	-1725.61	 1874.08
     46.3790	 2402.00	 2492.56	-1754.06	 1873.41
     46.4050	 2530.00	 2492.04	-1625.54	 1872.75
     46.4310	 2463.00	 2491.55	-1692.05	 1872.08
     46.4570	 2424.00	 2491.10	-1730.60	 1871.42
     46.4830	 2405.00	 2490.68	-1749.18	 1870.75
     46.5090	 2385.00	 2490.29	-1768.79	 1870.09
     46.5350	 2468.00	 2489.93	-1685.43	 1869.42
     46.5610	 2478.00	 2489.59	-1675.09	 1868.76
     46.5870	 2417.00	 2489.28	-1735.78	 1868.09
     46.6130	 2453.00	 2488.99	-1699.49	 1867.43
     46.6390	 2483.00	 2488.73	-1669.23	 1866.76
     46.6650	 2358.00	 2488.48	-1793.98	 1866.10
     46.6910	 2517.00	 2488.24	-1634.74	 1865.43
     46.7170	 2436.00	 2488.02	-1715.52	 1864.76
     46.7430	 2379.00	 2487.80	-1772.30	 1864.10
     46.7690	 2397.00	 2487.59	-1754.09	 1863.43
     46.7950	 2412.00	 2487.38	-1738.88	 1862.77
     46.8210	 2478.00	 2487.17	-1672.67	 1862.10
     46.8470	 2432.00	 2486.95	-1718.45	 1861.44
     46.8730	 2412.00	 2486.72	-1738.22	 1860.77
     46.8990	 2426.00	 2486.48	-1723.98	 1860.11
     46.9250	 2464.00	 2486.21	-1685.71	 1859.44
     46.9510	 2355.00	 2485.92	-1794.42	 1858.78
     46.9770	 2362.00	 2485.60	-1787.10	 1858.11
     47.0030	 2466.00	 2485.25	-1682.75	 1857.45
     47.0290	 2490.00	 2484.86	-1658.36	 1856.78
     47.0550	 2534.00	 2484.42	-1613.92	 1856.12
     47.0810	 2345.00	 2483.94	-1802.44	 1855.45
     47.1070	 2454.00	 2483.41	-1692.91	 1854.79
     47.1330	 2439.00	 2482.82	-1707.32	 1854.12
     47.1590	 2469.00	 2482.18	-1676.68	 1853.45
     47.1850	 2467.00	 2481.48	-1677.98	 1852.79
     47.2110	 2489.00	 2480.72	-1655.22	 1852.12
     47.2370	 2490.00	 2479.89	-1653.39	 1851.46
     47.2630	 2446.00	 2479.00	-1696.50	 1850.79
     47.2890	 2540.00	 2478.05	-1601.55	 1850.13
     47.3150	 2426.00	 2477.03	-1714.53	 1849.46
     47.3410	 2476.00	 2475.95	-1663.45	 1848.80
     47.3670	 2485.00	 2474.81	-1653.31	 1848.13
     47.3930	 2517.00	 2473.61	-1620.11	 1847.47
     47.4190	 2476.00	 2472.36	-1659.86	 1846.80
     47.4450	 2458.00	 2471.05	-1676.55	 1846.14
     47.4710	 2439.00	 2469.69	-1694.19	 1845.47
     47.4970	 2447.00	 2468.28	-1684.78	 1844.81
     47.5230	 2398.00	 2466.84	-1732.34	 1844.14
     47.5490	 2421.00	 2465.35	-1707.85	 1843.48
     47.5750	 2416.00	 2463.83	-1711.33	 1842.81
     47.6010	 2412.00	 2462.28	-1713.78	 1842.15
     47.6270	 2442.00	 2460.70	-1682.20	 1841.48
     47.6530	 2477.00	 2459.10	-1645.60	 1840.81
     47.6790	 2451.00	 2457.48	-1669.98	 1840.15
     47.7050	 2478.00	 2455.85	-1641.35	 1839.48
     47.7310	 2420.00	 2454.22	-1697.72	 1838.82
     47.7570	 2417.00	 2452.57	-1699.07	 1838.15
     47.7830	 2452.00	 2450.93	-1662.43	 1837.49
     47.8090	 2481.00	 2449.28	-1631.78	 1836.82
     47.8350	 2431.00	 2447.64	-1680.14	 1836.16
     47.8610	 2428.00	 2446.01	-1681.51	 1835.49
     47.8870	 2429.00	 2444.39	-1678.89	 1834.83
     47.9130	 2415.00	 2442.78	-1691.28	 1834.16
     47.9390	 2436.00	 2441.18	-1668.68	 1833.50
     47.9650	 2493.00	 2439.61	-1610.11	 1832.83
     47.9910	 2521.00	 2438.04	-1580.54	 1832.17
     48.0170	 2456.00	 2436.80	-1644.30	 1831.79
     48.0430	 2459.00	 2435.90	-1640.40	 1831.75
     48.0690	 2440.00	 2435.02	-1658.52	 1831.71
     48.0950	 2448.00	 2434.17	-1649.67	 1831.67
     48.1210	 2494.00	 2433.34	-1602.84	 1831.63
     48.1470	 2461.00	 2432.54	-1635.04	 1831.59
     48.1730	 2435.00	 2431.76	-1660.26	 1831.55
     48.1990	 2431.00	 2431.00	-1663.50	 1831.51
     48.2250	 2465.00	 2430.27	-1628.77	 1831.46
     48.2510	 2508.00	 2429.56	-1585.06	 1831.42
     48.2770	 2482.00	 2428.88	-1610.38	 1831.38
     48.3030	 2476.00	 2428.23	-1615.73	 1831.34
     48.3290	 2514.00	 2427.60	-1577.10	 1831.30
     48.3550	 2495.00	 2426.99	-1595.49	 1831.26
     48.3810	 2456.00	 2426.41	-1633.91	 1831.22
     48.4070	 2486.00	 2425.85	-1603.35	 1831.18
     48.4330	 2518.00	 2425.32	-1570.82	 1831.14
     48.4590	 2505.00	 2424.81	-1583.31	 1831.10
     48.4850	 2508.00	 2424.33	-1579.83	 1831.05
     48.5110	 2556.00	 2423.87	-1531.37	 1831.01
     48.5370	 2549.00	 2423.43	-1537.93	 1830.97
     48.5630	 2467.00	 2423.01	-1619.51	 1830.93
     48.5890	 2445.00	 2422.62	-1641.12	 1830.89
     48.6150	 2457.00	 2422.24	-1628.74	 1830.85
     48.6410	 2464.00	 2421.89	-1621.39	 1830.81
     48.6670	 2525.00	 2421.56	-1560.06	 1830.77
     48.6930	 2472.00	 2421.25	-1612.75	 1830.73
     48.7190	 2460.00	 2420.97	-1624.47	 1830.69
     48.7450	 2453.00	 2420.70	-1631.20	 1830.64
     48.7710	 2485.00	 2420.45	-1598.95	 1830.60
     48.7970	 2480.00	 2420.22	-1603.72	 1830.56
     48.8230	 2474.00	 2420.01	-1609.51	 1830.52
     48.8490	 2509.00	 2419.82	-1574.32	 1830.48
     48.8750	 2452.00	 2419.64	-1631.14	 1830.44
     48.9010	 2461.00	 2419.49	-1621.99	 1830.40
     48.9270	 2411.00	 2419.35	-1671.85	 1830.36
     48.9530	 2456.00	 2419.23	-1626.73	 1830.32
     48.9790	 2448.00	 2419.13	-1634.63	 1830.27
     49.0050	 2436.00	 2419.05	-1646.55	 1830.23
     49.0310	 2435.00	 2418.98	-1647.48	 1830.19
     49.0570	 2524.00	 2418.93	-1558.43	 1830.15
     49.0830	 2464.00	 2418.89	-1618.39	 1830.11
     49.1090	 2522.00	 2418.87	-1560.37	 1830.07
     49.1350	 2506.00	 2418.87	-1576.37	 1830.03
     49.1610	 2508.00	 2418.89	-1574.39	 1829.99
     49.1870	 2467.00	 2418.92	-1615.42	 1829.95
     49.2130	 2501.00	 2418.96	-1581.46	 1829.91
     49.2390	 2512.00	 2419.03	-1570.53	 1829.86
     49.2650	 2518.00	 2419.10	-1564.60	 1829.82
     49.2910	 2482.00	 2419.20	-1600.70	 1829.78
     49.3170	 2566.00	 2419.30	-1516.80	 1829.74
     49.3430	 2647.00	 2419.43	-1435.93	 1829.70
     49.3690	 2486.00	 2419.57	-1597.07	 1829.66
     49.3950	 2476.00	 2419.72	-1607.22	 1829.62
     49.4210	 2438.00	 2419.89	-1645.39	 1829.58
     49.4470	 2538.00	 2420.08	-1545.58	 1829.54
     49.4730	 2419.00	 2420.28	-1664.78	 1829.50
     49.4990	 2590.00	 2420.49	-1493.99	 1829.45
     49.5250	 2487.00	 2420.72	-1597.22	 1829.41
     49.5510	 2484.00	 2420.97	-1600.47	 1829.37
     49.5770	 2386.00	 2421.23	-1698.73	 1829.33
     49.6030	 2512.00	 2421.51	-1573.01	 1829.29
     49.6290	 2544.00	 2421.80	-1541.30	 1829.25
     49.6550	 2433.00	 2422.11	-1652.61	 1829.21
     49.6810	 2491.00	 2422.43	-1594.93	 1829.17
     49.7070	 2473.00	 2422.77	-1613.27	 1829.13
     49.7330	 2479.00	 2423.12	-1607.62	 1829.08
     49.7590	 2560.00	 2423.49	-1526.99	 1829.04
     49.7850	 2536.00	 2423.88	-1551.38	 1829.00
     49.8110	 2532.00	 2424.28	-1555.78	 1828.96
     49.8370	 2588.00	 2424.70	-1500.20	 1828.92
     49.8630	 2635.00	 2425.14	-1453.64	 1828.88
     49.8890	 2491.00	 2425.59	-1598.09	 1828.84
     49.9150	 2631.00	 2426.06	-1458.56	 1828.80
     49.9410	 2535.00	 2426.55	-1555.05	 1828.76
     49.9670	 2460.00	 2427.05	-1630.55	 1828.72
     49.9930	 2613.00	 2427.58	-1478.08	 1828.67
     50.0190	 2653.00	 2428.12	-1438.62	 1828.63
     50.0450	 2552.00	 2428.67	-1540.17	 1828.59
     50.0710	 2568.00	 2429.25	-1524.75	 1828.55
     50.0970	 2504.00	 2429.85	-1589.35	 1828.51
     50.1230	 2520.00	 2430.50	-1574.00	 1828.51
     50.1490	 2566.00	 2431.17	-1528.67	 1828.51
     50.1750	 2553.00	 2431.87	-1542.37	 1828.51
     50.2010	 2523.00	 2432.58	-1573.08	 1828.51
     50.2270	 2518.00	 2433.32	-1578.82	 1828.51
     50.2530	 2533.00	 2434.07	-1564.57	 1828.51
     50.2790	 2524.00	 2434.85	-1574.35	 1828.51
     50.3050	 2571.00	 2435.64	-1528.14	 1828.51
     50.3310	 2531.00	 2436.46	-1568.96	 1828.51
     50.3570	 2588.00	 2437.30	-1512.80	 1828.51
     50.3830	 2629.00	 2438.17	-1472.67	 1828.51
     50.4090	 2636.00	 2439.06	-1466.56	 1828.51
     50.4350	 2599.00	 2439.97	-1504.47	 1828.51
     50.4610	 2568.00	 2440.90	-1536.40	 1828.51
     50.4870	 2523.00	 2441.86	-1582.36	 1828.51
     50.5130	 2544.00	 2442.85	-1562.35	 1828.51
     50.5390	 2558.00	 2443.86	-1549.36	 1828.51
     50.5650	 2566.00	 2444.90	-1542.40	 1828.51
     50.5910	 2666.00	 2445.97	-1443.47	 1828.51
     50.6170	 2701.00	 2447.06	-1409.56	 1828.51
     50.6430	 2635.00	 2448.19	-1476.69	 1828.51
     50.6690	 2539.00	 2449.34	-1573.84	 1828.51
     50.6950	 2543.00	 2450.52	-1571.02	 1828.51
     50.7210	 2619.00	 2451.73	-1496.23	 1828.51
     50.7470	 2555.00	 2452.98	-1561.48	 1828.51
     50.7730	 2529.00	 2454.25	-1588.75	 1828.51
     50.7990	 2562.00	 2455.56	-1557.06	 1828.51
     50.8250	 2585.00	 2456.91	-1535.41	 1828.51
     50.8510	 2636.00	 2458.29	-1485.79	 1828.51
     50.8770	 2651.00	 2459.70	-1472.20	 1828.51
     50.9030	 2654.00	 2461.15	-1470.65	 1828.51
     50.9290	 2669.00	 2462.64	-1457.14	 1828.51
     50.9550	 2657.00	 2464.17	-1470.67	 1828.51
     50.9810	 2655.00	 2465.74	-1474.24	 1828.51
     51.0070	 2682.00	 2467.35	-1448.85	 1828.51
     51.0330	 2648.00	 2469.01	-1484.51	 1828.51
     51.0590	 2584.00	 2470.71	-1550.21	 1828.51
     51.0850	 2555.00	 2472.45	-1580.95	 1828.51
     51.1110	 2581.00	 2474.24	-1556.74	 1828.51
     51.1370	 2669.00	 2476.07	-1470.57	 1828.51
     51.1630	 2663.00	 2477.96	-1478.46	 1828.51
     51.1890	 2618.00	 2479.90	-1525.40	 1828.51
     51.2150	 2639.00	 2481.89	-1506.39	 1828.51
     51.2410	 2589.00	 2483.93	-1558.43	 1828.51
     51.2670	 2606.00	 2486.03	-1543.53	 1828.51
     51.2930	 2629.00	 2488.18	-1522.68	 1828.51
     51.3190	 2618.00	 2490.40	-1535.90	 1828.51
     51.3450	 2619.00	 2492.67	-1537.17	 1828.51
     51.3710	 2703.00	 2495.01	-1455.51	 1828.51
     51.3970	 2691.00	 2497.41	-1469.91	 1828.51
     51.4230	 2649.00	 2499.88	-1514.38	 1828.51
     51.4490	 2597.00	 2502.42	-1568.92	 1828.51
     51.4750	 2598.00	 2505.03	-1570.53	 1828.51
     51.5010	 2633.00	 2507.71	-1538.21	 1828.51
     51.5270	 2619.00	 2510.47	-1554.97	 1828.51
     51.5530	 2629.00	 2513.31	-1547.81	 1828.51
     51.5790	 2625.00	 2516.23	-1554.73	 1828.51
     51.6050	 2648.00	 2519.23	-1534.73	 1828.51
     51.6310	 2720.00	 2522.32	-1465.82	 1828.51
     51.6570	 2748.00	 2525.49	-1440.99	 1828.51
     51.6830	 2714.00	 2528.76	-1478.26	 1828.51
     51.7090	 2704.00	 2532.13	-1491.63	 1828.51
     51.7350	 2757.00	 2535.59	-1442.09	 1828.51
     51.7610	 2661.00	 2539.15	-1541.65	 1828.51
     51.7870	 2627.00	 2542.82	-1579.32	 1828.51
     51.8130	 2736.00	 2546.59	-1474.09	 1828.51
     51.8390	 2690.00	 2550.48	-1523.98	 1828.51
     51.8650	 2671.00	 2554.49	-1546.99	 1828.51
     51.8910	 2694.00	 2558.61	-1528.11	 1828.51
     51.9170	 2700.00	 2562.85	-1526.35	 1828.51
     51.9430	 2686.00	 2567.22	-1544.72	 1828.51
     51.9690	 2667.00	 2571.73	-1568.23	 1828.51
     51.9950	 2698.00	 2576.36	-1541.86	 1828.51
     52.0210	 2768.00	 2581.14	-1476.64	 1828.51
     52.0470	 2715.00	 2586.06	-1534.56	 1828.51
     52.0730	 2759.00	 2591.12	-1495.62	 1828.51
     52.0990	 2723.00	 2596.34	-1536.84	 1828.51
     52.1250	 2733.00	 2601.71	-1532.21	 1828.51
     52.1510	 2791.00	 2607.25	-1479.75	 1828.51
     52.1770	 2710.00	 2612.95	-1566.45	 1828.51
     52.2030	 2639.00	 2618.82	-1643.32	 1828.51
     52.2290	 2705.00	 2624.86	-1583.36	 1828.51
     52.2550	 2743.00	 2631.09	-1551.59	 1828.51
     52.2810	 2623.00	 2637.49	-1677.99	 1828.51
     52.3070	 2729.00	 2644.08	-1578.58	 1828.51
     52.3330	 2731.00	 2650.87	-1583.37	 1828.51
     52.3590	 2724.00	 2657.84	-1597.34	 1828.51
     52.3850	 2742.00	 2665.02	-1586.52	 1828.51
     52.4110	 2762.00	 2672.40	-1573.90	 1828.51
     52.4370	 2712.00	 2679.98	-1631.48	 1828.51
     52.4630	 2775.00	 2687.77	-1576.27	 1828.51
     52.4890	 2694.00	 2695.77	-1665.27	 1828.51
     52.5150	 2720.00	 2703.98	-1647.48	 1828.51
     52.5410	 2743.00	 2712.40	-1632.90	 1828.51
     52.5670	 2801.00	 2721.03	-1583.53	 1828.51
     52.5930	 2884.00	 2729.87	-1509.37	 1828.51
     52.6190	 2816.00	 2738.92	-1586.42	 1828.51
     52.6450	 2710.00	 2748.18	-1701.68	 1828.51
     52.6710	 2734.00	 2757.64	-1687.14	 1828.51
     52.6970	 2793.00	 2767.29	-1637.79	 1828.51
     52.7230	 2719.00	 2777.13	-1721.63	 1828.51
     52.7490	 2766.00	 2787.16	-1684.66	 1828.51
     52.7750	 2787.00	 2797.35	-1673.85	 1828.51
     52.8010	 2783.00	 2807.71	-1688.21	 1828.51
     52.8270	 2747.00	 2818.20	-1734.70	 1828.51
     52.8530	 2757.00	 2828.83	-1735.33	 1828.51
     52.8790	 2734.00	 2839.64	-1769.14	 1828.59
     52.9050	 2701.00	 2850.57	-1813.07	 1828.70
     52.9310	 2771.00	 2861.57	-1754.07	 1828.82
     52.9570	 2798.00	 2872.61	-1738.11	 1828.93
     52.9830	 2781.00	 2883.66	-1766.16	 1829.05
     53.0090	 2779.00	 2894.69	-1779.19	 1829.16
     53.0350	 2814.00	 2905.66	-1755.16	 1829.28
     53.0610	 2816.00	 2916.54	-1764.04	 1829.39
     53.0870	 2827.00	 2927.29	-1763.79	 1829.51
     53.1130	 2812.00	 2937.87	-1789.37	 1829.62
     53.1390	 2816.00	 2948.24	-1795.74	 1829.74
     53.1650	 2821.00	 2958.35	-1800.85	 1829.85
     53.1910	 2851.00	 2968.16	-1780.66	 1829.97
     53.2170	 2812.00	 2977.61	-1829.11	 1830.08
     53.2430	 2790.00	 2986.67	-1860.17	 1830.20
     53.2690	 2813.00	 2995.29	-1845.79	 1830.31
     53.2950	 2814.00	 3003.42	-1852.92	 1830.42
     53.3210	 2800.00	 3011.02	-1874.52	 1830.54
     53.3470	 2834.00	 3018.04	-1847.54	 1830.65
     53.3730	 2859.00	 3024.45	-1828.95	 1830.77
     53.3990	 2838.00	 3030.20	-1855.70	 1830.88
     53.4250	 2837.00	 3035.28	-1861.78	 1831.00
     53.4510	 2810.00	 3039.64	-1893.14	 1831.11
     53.4770	 2774.00	 3043.27	-1932.77	 1831.23
     53.5030	 2804.00	 3046.14	-1905.64	 1831.34
     53.5290	 2838.00	 3048.25	-1873.75	 1831.46
     53.5550	 2866.00	 3049.60	-1847.10	 1831.57
     53.5810	 2904.00	 3050.17	-1809.67	 1831.69
     53.6070	 2847.00	 3049.97	-1866.47	 1831.80
     53.6330	 2776.00	 3049.02	-1936.52	 1831.92
     53.6590	 2803.00	 3047.34	-1907.84	 1832.03
     53.6850	 2802.00	 3044.94	-1906.44	 1832.15
     53.7110	 2801.00	 3041.86	-1904.36	 1832.26
     53.7370	 2793.00	 3038.13	-1908.63	 1832.38
     53.7630	 2763.00	 3033.78	-1934.28	 1832.49
     53.7890	 2796.00	 3028.85	-1896.35	 1832.61
     53.8150	 2794.00	 3023.39	-1892.89	 1832.72
     53.8410	 2798.00	 3017.45	-1882.95	 1832.84
     53.8670	 2825.00	 3011.05	-1849.55	 1832.95
     53.8930	 2851.00	 3004.27	-1816.77	 1833.07
     53.9190	 2839.00	 2997.13	-1821.63	 1833.18
     53.9450	 2822.00	 2989.70	-1831.20	 1833.30
     53.9710	 2805.00	 2982.01	-1840.51	 1833.41
     53.9970	 2787.00	 2974.11	-1850.61	 1833.52
     54.0230	 2774.00	 2966.06	-1855.56	 1833.64
     54.0490	 2808.00	 2957.88	-1813.38	 1833.75
     54.0750	 2751.00	 2949.62	-1862.12	 1833.87
     54.1010	 2772.00	 2941.31	-1832.81	 1833.98
     54.1270	 2812.00	 2933.01	-1784.51	 1834.10
     54.1530	 2845.00	 2924.72	-1743.22	 1834.21
     54.1790	 2846.00	 2916.50	-1734.00	 1834.33
     54.2050	 2732.00	 2908.36	-1839.86	 1834.44
     54.2310	 2696.00	 2900.34	-1867.84	 1834.56
     54.2570	 2738.00	 2892.45	-1817.95	 1834.67
     54.2830	 2760.00	 2884.71	-1788.21	 1834.79
     54.3090	 2737.00	 2877.15	-1803.65	 1834.90
     54.3350	 2706.00	 2869.78	-1827.28	 1835.02
     54.3610	 2772.00	 2862.62	-1754.12	 1835.13
     54.3870	 2775.00	 2855.68	-1744.18	 1835.25
     54.4130	 2703.00	 2848.97	-1809.47	 1835.36
     54.4390	 2767.00	 2842.49	-1738.99	 1835.48
     54.4650	 2704.00	 2836.27	-1795.77	 1835.59
     54.4910	 2758.00	 2830.30	-1735.80	 1835.71
     54.5170	 2706.00	 2824.58	-1782.08	 1835.82
     54.5430	 2741.00	 2819.13	-1741.63	 1835.94
     54.5690	 2699.00	 2813.95	-1778.45	 1836.05
     54.5950	 2691.00	 2809.04	-1781.54	 1836.17
     54.6210	 2728.00	 2804.40	-1739.90	 1836.28
     54.6470	 2678.00	 2800.03	-1785.53	 1836.40
     54.6730	 2690.00	 2795.93	-1769.43	 1836.51
     54.6990	 2800.00	 2792.11	-1655.61	 1836.63
     54.7250	 2735.00	 2788.56	-1717.06	 1836.74
     54.7510	 2801.00	 2785.29	-1647.79	 1836.85
     54.7770	 2730.00	 2782.29	-1715.79	 1836.97
     54.8030	 2665.00	 2779.56	-1778.06	 1837.08
     54.8290	 2672.00	 2777.10	-1768.60	 1837.20
     54.8550	 2745.00	 2774.91	-1693.41	 1837.31
     54.8810	 2652.00	 2772.99	-1784.49	 1837.43
     54.9070	 2739.00	 2771.33	-1695.83	 1837.54
     54.9330	 2665.00	 2769.95	-1768.45	 1837.66
     54.9590	 2666.00	 2768.83	-1766.33	 1837.77
     54.9850	 2752.00	 2767.97	-1679.47	 1837.89
     55.0110	 2601.00	 2767.38	-1829.88	 1838.00
     55.0370	 2801.00	 2767.06	-1629.56	 1838.12
     55.0630	 2699.00	 2767.00	-1731.50	 1838.23
     55.0890	 2831.00	 2767.20	-1599.70	 1838.35
     55.1150	 2771.00	 2767.67	-1660.17	 1838.46
     55.1410	 2777.00	 2768.40	-1654.90	 1838.58
     55.1670	 2709.00	 2769.39	-1723.89	 1838.69
     55.1930	 2683.00	 2770.65	-1751.15	 1838.81
     55.2190	 2716.00	 2772.18	-1719.68	 1838.92
     55.2450	 2724.00	 2773.97	-1713.47	 1839.04
     55.2710	 2776.00	 2776.03	-1663.53	 1839.15
     55.2970	 2712.00	 2778.37	-1729.87	 1839.27
     55.3230	 2722.00	 2780.97	-1722.47	 1839.38
     55.3490	 2693.00	 2783.85	-1754.35	 1839.50
     55.3750	 2768.00	 2787.01	-1682.51	 1839.61
     55.4010	 2813.00	 2790.45	-1640.95	 1839.73
     55.4270	 2757.00	 2794.17	-1700.67	 1839.84
     55.4530	 2808.00	 2798.18	-1653.68	 1839.96
     55.4790	 2771.00	 2802.48	-1694.98	 1840.07
     55.5050	 2662.00	 2807.07	-1808.57	 1840.19
     55.5310	 2711.00	 2811.96	-1764.46	 1840.30
     55.5570	 2795.00	 2817.15	-1685.65	 1840.41
     55.5830	 2754.00	 2822.64	-1732.14	 1840.53
     55.6090	 2748.00	 2828.45	-1743.95	 1840.64
     55.6350	 2775.00	 2834.57	-1723.07	 1840.76
     55.6610	 2790.00	 2841.01	-1714.51	 1840.87
     55.6870	 2841.00	 2847.78	-1670.28	 1840.99
     55.7130	 2860.00	 2854.87	-1658.37	 1841.10
     55.7390	 2849.00	 2862.30	-1676.80	 1841.22
     55.7650	 2834.00	 2870.07	-1699.57	 1841.33
     55.7910	 2854.00	 2878.19	-1687.69	 1841.45
     55.8170	 2825.00	 2886.65	-1725.15	 1841.56
     55.8430	 2739.00	 2895.46	-1819.96	 1841.68
     55.8690	 2776.00	 2904.64	-1792.14	 1841.79
     55.8950	 2843.00	 2914.17	-1734.67	 1841.91
     55.9210	 2820.00	 2924.07	-1767.57	 1842.02
     55.9470	 2891.00	 2934.34	-1706.84	 1842.14
     55.9730	 2888.00	 2944.98	-1720.48	 1842.25
     55.9990	 2925.00	 2956.00	-1694.50	 1842.37
     56.0250	 2890.00	 2967.39	-1740.89	 1842.48
     56.0510	 2795.00	 2979.15	-1847.65	 1842.60
     56.0770	 2913.00	 2991.28	-1741.78	 1842.71
     56.1030	 3019.00	 3003.78	-1648.28	 1842.83
     56.1290	 2965.00	 3016.65	-1715.15	 1842.94
     56.1550	 2900.00	 3029.89	-1793.39	 1843.06
     56.1810	 2942.00	 3043.47	-1764.97	 1843.17
     56.2070	 3037.00	 3057.40	-1683.90	 1843.29
     56.2330	 3016.00	 3071.66	-1719.16	 1843.40
     56.2590	 2947.00	 3086.24	-1802.74	 1843.52
     56.2850	 2991.00	 3101.12	-1773.62	 1843.63
     56.3110	 3035.00	 3116.28	-1744.78	 1843.74
     56.3370	 3008.00	 3131.70	-1787.20	 1843.86
     56.3630	 2995.00	 3147.36	-1815.86	 1843.97
     56.3890	 3040.00	 3163.21	-1786.71	 1844.09
     56.4150	 3065.00	 3179.24	-1777.74	 1844.20
     56.4410	 3088.00	 3195.41	-1770.91	 1844.32
     56.4670	 3076.00	 3211.66	-1799.16	 1844.43
     56.4930	 3154.00	 3227.96	-1737.46	 1844.55
     56.5190	 3108.00	 3244.26	-1799.76	 1844.66
     56.5450	 3079.00	 3260.51	-1845.01	 1844.78
     56.5710	 3100.00	 3276.64	-1840.14	 1844.89
     56.5970	 3187.00	 3292.60	-1769.10	 1845.01
     56.6230	 3151.00	 3308.72	-1821.22	 1845.52
     56.6490	 3184.00	 3324.61	-1804.11	 1846.11
     56.6750	 3215.00	 3340.12	-1788.62	 1846.71
     56.7010	 3198.00	 3355.18	-1820.68	 1847.30
     56.7270	 3121.00	 3369.72	-1912.22	 1847.89
     56.7530	 3126.00	 3383.65	-1921.15	 1848.48
     56.7790	 3160.00	 3396.90	-1900.40	 1849.07
     56.8050	 3189.00	 3409.40	-1883.90	 1849.67
     56.8310	 3244.00	 3421.08	-1840.58	 1850.26
     56.8570	 3239.00	 3431.85	-1856.35	 1850.85
     56.8830	 3234.00	 3441.65	-1871.15	 1851.44
     56.9090	 3297.00	 3450.42	-1816.92	 1852.03
     56.9350	 3273.00	 3458.10	-1848.60	 1852.62
     56.9610	 3355.00	 3464.64	-1773.14	 1853.22
     56.9870	 3308.00	 3469.98	-1825.48	 1853.81
     57.0130	 3249.00	 3474.10	-1888.60	 1854.40
     57.0390	 3247.00	 3476.96	-1893.46	 1854.99
     57.0650	 3277.00	 3478.55	-1865.05	 1855.58
     57.0910	 3244.00	 3478.85	-1898.35	 1856.18
     57.1170	 3245.00	 3477.86	-1896.36	 1856.77
     57.1430	 3296.00	 3475.59	-1843.09	 1857.36
     57.1690	 3362.00	 3472.06	-1773.56	 1857.95
     57.1950	 3294.00	 3467.30	-1836.80	 1858.54
     57.2210	 3313.00	 3461.33	-1811.83	 1859.13
     57.2470	 3415.00	 3454.21	-1702.71	 1859.73
     57.2730	 3357.00	 3446.01	-1752.51	 1860.32
     57.2990	 3334.00	 3436.74	-1766.24	 1860.91
     57.3250	 3334.00	 3426.48	-1755.98	 1861.50
     57.3510	 3347.00	 3415.29	-1731.79	 1862.09
     57.3770	 3343.00	 3403.26	-1723.76	 1862.69
     57.4030	 3379.00	 3390.46	-1674.96	 1863.28
     57.4290	 3391.00	 3376.94	-1649.44	 1863.87
     57.4550	 3330.00	 3362.82	-1696.32	 1864.46
     57.4810	 3263.00	 3348.13	-1748.63	 1865.05
     57.5070	 3289.00	 3332.96	-1707.46	 1865.65
     57.5330	 3341.00	 3317.39	-1639.89	 1866.24
     57.5590	 3241.00	 3301.48	-1723.98	 1866.83
     57.5850	 3279.00	 3285.31	-1669.81	 1867.42
     57.6110	 3225.00	 3268.94	-1707.44	 1868.01
     57.6370	 3277.00	 3252.42	-1638.92	 1868.60
     57.6630	 3223.00	 3235.82	-1676.32	 1869.20
     57.6890	 3309.00	 3219.18	-1573.68	 1869.79
     57.7150	 3173.00	 3202.57	-1693.07	 1870.38
     57.7410	 3174.00	 3186.02	-1675.52	 1870.97
     57.7670	 3142.00	 3169.58	-1691.08	 1871.56
     57.7930	 3196.00	 3153.28	-1620.78	 1872.16
     57.8190	 3075.00	 3137.15	-1725.65	 1872.75
     57.8450	 3174.00	 3121.23	-1610.73	 1873.34
     57.8710	 3181.00	 3105.54	-1588.04	 1873.93
     57.8970	 3121.00	 3090.10	-1632.60	 1874.52
     57.9230	 3197.00	 3074.94	-1541.44	 1875.11
     57.9490	 3059.00	 3060.07	-1664.57	 1875.71
     57.9750	 3144.00	 3045.50	-1565.00	 1876.30
     58.0010	 3179.00	 3031.25	-1515.75	 1876.89
     58.0270	 3090.00	 3017.32	-1590.82	 1877.48
     58.0530	 3053.00	 3003.72	-1614.22	 1878.07
     58.0790	 3041.00	 2990.46	-1612.96	 1878.67
     58.1050	 3065.00	 2977.54	-1576.04	 1879.26
     58.1310	 3084.00	 2964.97	-1544.47	 1879.85
     58.1570	 3029.00	 2952.73	-1587.23	 1880.44
     58.1830	 3031.00	 2940.83	-1573.33	 1881.03
     58.2090	 3033.00	 2929.27	-1559.77	 1881.62
     58.2350	 3087.00	 2918.05	-1494.55	 1882.22
     58.2610	 2999.00	 2907.16	-1571.66	 1882.81
     58.2870	 2985.00	 2896.60	-1575.10	 1883.40
     58.3130	 3001.00	 2886.37	-1548.87	 1883.99
     58.3390	 2973.00	 2876.45	-1566.95	 1884.58
     58.3650	 2996.00	 2866.84	-1534.34	 1885.18
     58.3910	 3019.00	 2857.54	-1502.04	 1885.77
     58.4170	 3024.00	 2848.54	-1488.04	 1886.36
     58.4430	 2968.00	 2839.83	-1535.33	 1886.95
     58.4690	 2944.00	 2831.41	-1550.91	 1887.54
     58.4950	 2954.00	 2823.27	-1532.77	 1888.13
     58.5210	 2938.00	 2815.40	-1540.90	 1888.73
     58.5470	 2896.00	 2807.80	-1575.30	 1889.32
     58.5730	 2899.00	 2800.14	-1564.64	 1889.91
     58.5990	 2904.00	 2793.05	-1552.55	 1890.50
     58.6250	 2807.00	 2786.20	-1642.70	 1891.09
     58.6510	 2817.00	 2779.60	-1626.10	 1891.69
     58.6770	 2846.00	 2773.22	-1590.72	 1892.28
     58.7030	 2850.00	 2766.92	-1580.42	 1892.87
     58.7290	 2847.00	 2760.99	-1577.49	 1893.46
     58.7550	 2870.00	 2755.27	-1548.77	 1894.05
     58.7810	 2930.00	 2749.73	-1483.23	 1894.62
     58.8070	 2843.00	 2744.19	-1564.69	 1894.97
     58.8330	 2783.00	 2738.83	-1619.33	 1895.32
     58.8590	 2791.00	 2733.67	-1606.17	 1895.67
     58.8850	 2793.00	 2728.69	-1599.19	 1896.02
     58.9110	 2837.00	 2723.89	-1550.39	 1896.38
     58.9370	 2871.00	 2719.26	-1511.76	 1896.73
     58.9630	 2904.00	 2714.81	-1474.31	 1897.08
     58.9890	 2850.00	 2710.52	-1524.02	 1897.43
     59.0150	 2796.00	 2706.38	-1573.88	 1897.78
     59.0410	 2844.00	 2702.41	-1521.91	 1898.13
     59.0670	 2789.00	 2698.58	-1573.08	 1898.49
     59.0930	 2767.00	 2694.90	-1591.40	 1898.84
     59.1190	 2765.00	 2691.37	-1589.87	 1899.19
     59.1450	 2720.00	 2687.97	-1631.47	 1899.54
     59.1710	 2709.00	 2684.71	-1639.21	 1899.89
     59.1970	 2791.00	 2681.58	-1554.08	 1900.24
     59.2230	 2839.00	 2678.58	-1503.08	 1900.60
     59.2490	 2813.00	 2675.71	-1526.21	 1900.95
     59.2750	 2843.00	 2672.96	-1493.46	 1901.30
     59.3010	 2793.00	 2670.33	-1540.83	 1901.65
     59.3270	 2814.00	 2667.81	-1517.31	 1902.00
     59.3530	 2857.00	 2665.41	-1471.91	 1902.35
     59.3790	 2774.00	 2663.13	-1552.63	 1902.71
     59.4050	 2761.00	 2660.95	-1563.45	 1903.06
     59.4310	 2793.00	 2658.87	-1529.37	 1903.41
     59.4570	 2701.00	 2656.91	-1619.41	 1903.76
     59.4830	 2753.00	 2655.04	-1565.54	 1904.11
     59.5090	 2849.00	 2653.28	-1467.78	 1904.46
     59.5350	 2715.00	 2651.61	-1600.11	 1904.82
     59.5610	 2711.00	 2650.04	-1602.54	 1905.17
     59.5870	 2782.00	 2648.57	-1530.07	 1905.52
     59.6130	 2793.00	 2647.19	-1517.69	 1905.87
     59.6390	 2714.00	 2645.91	-1595.41	 1906.22
     59.6650	 2797.00	 2644.71	-1511.21	 1906.57
     59.6910	 2765.00	 2643.60	-1542.10	 1906.93
     59.7170	 2758.00	 2642.59	-1548.09	 1907.28
     59.7430	 2820.00	 2641.66	-1485.16	 1907.63
     59.7690	 2812.00	 2640.54	-1492.04	 1907.70
     59.7950	 2776.00	 2639.26	-1526.76	 1907.54
     59.8210	 2824.00	 2638.08	-1477.58	 1907.37
     59.8470	 2845.00	 2636.97	-1455.47	 1907.21
     59.8730	 2717.00	 2635.95	-1582.45	 1907.04
     59.8990	 2871.00	 2635.01	-1427.51	 1906.87
     59.9250	 2778.00	 2634.16	-1519.66	 1906.71
     59.9510	 2822.00	 2633.39	-1474.89	 1906.54
     59.9770	 2724.00	 2632.70	-1572.20	 1906.38
     60.0030	 2863.00	 2632.09	-1432.59	 1906.21
     60.0290	 2788.00	 2631.56	-1507.06	 1906.05
     60.0550	 2719.00	 2631.12	-1575.62	 1905.88
     60.0810	 2751.00	 2630.76	-1543.26	 1905.72
     60.1070	 2733.00	 2630.48	-1560.98	 1905.55
     60.1330	 2839.00	 2630.28	-1454.78	 1905.38
     60.1590	 2803.00	 2630.17	-1490.67	 1905.22
     60.1850	 2815.00	 2630.14	-1478.64	 1905.05
     60.2110	 2743.00	 2630.20	-1550.70	 1904.89
     60.2370	 2832.00	 2630.33	-1461.83	 1904.72
     60.2630	 2715.00	 2630.56	-1579.06	 1904.56
     60.2890	 2762.00	 2630.87	-1532.37	 1904.39
     60.3150	 2808.00	 2631.27	-1486.77	 1904.22
     60.3410	 2783.00	 2631.75	-1512.25	 1904.06
     60.3670	 2700.00	 2632.33	-1595.83	 1903.89
     60.3930	 2724.00	 2633.00	-1572.50	 1903.73
     60.4190	 2787.00	 2633.75	-1510.25	 1903.56
     60.4450	 2707.00	 2634.61	-1591.11	 1903.40
     60.4710	 2833.00	 2635.55	-1466.05	 1903.23
     60.4970	 2697.00	 2636.60	-1603.10	 1903.07
     60.5230	 2743.00	 2637.74	-1558.24	 1902.90
     60.5490	 2786.00	 2638.98	-1516.48	 1902.73
     60.5750	 2771.00	 2640.33	-1532.83	 1902.57
     60.6010	 2651.00	 2641.78	-1654.28	 1902.40
     60.6270	 2690.00	 2643.34	-1616.84	 1902.24
     60.6530	 2666.00	 2645.01	-1642.51	 1902.07
     60.6790	 2736.00	 2646.80	-1574.30	 1901.91
     60.7050	 2785.00	 2648.70	-1527.20	 1901.74
     60.7310	 2724.00	 2650.71	-1590.21	 1901.57
     60.7570	 2700.00	 2652.85	-1616.35	 1901.41
     60.7830	 2762.00	 2655.11	-1556.61	 1901.24
     60.8090	 2706.00	 2657.50	-1615.00	 1901.08
     60.8350	 2689.00	 2660.02	-1634.52	 1900.91
     60.8610	 2681.00	 2662.68	-1645.18	 1900.75
     60.8870	 2681.00	 2665.49	-1647.99	 1900.58
     60.9130	 2723.00	 2668.43	-1608.93	 1900.42
     60.9390	 2733.00	 2671.52	-1602.02	 1900.25
     60.9650	 2699.00	 2674.77	-1639.27	 1900.08
     60.9910	 2710.00	 2678.17	-1631.67	 1899.92
     61.0170	 2720.00	 2681.74	-1625.24	 1899.75
     61.0430	 2746.00	 2685.48	-1602.98	 1899.59
     61.0690	 2749.00	 2689.40	-1603.90	 1899.42
     61.0950	 2724.00	 2693.49	-1632.99	 1899.26
     61.1210	 2714.00	 2697.78	-1647.28	 1899.09
     61.1470	 2706.00	 2702.26	-1659.76	 1898.92
     61.1730	 2744.00	 2706.94	-1626.44	 1898.76
     61.1990	 2757.00	 2711.84	-1618.34	 1898.59
     61.2250	 2733.00	 2716.95	-1647.45	 1898.43
     61.2510	 2725.00	 2722.28	-1660.78	 1898.26
     61.2770	 2725.00	 2727.85	-1666.35	 1898.10
     61.3030	 2737.00	 2733.67	-1660.17	 1897.93
     61.3290	 2779.00	 2739.74	-1624.24	 1897.77
     61.3550	 2797.00	 2746.07	-1612.57	 1897.60
     61.3810	 2772.00	 2752.68	-1644.18	 1897.43
     61.4070	 2767.00	 2759.57	-1656.07	 1897.27
     61.4330	 2761.00	 2766.76	-1669.26	 1897.10
     61.4590	 2783.00	 2774.26	-1654.76	 1896.94
     61.4850	 2792.00	 2782.09	-1653.59	 1896.77
     61.5110	 2790.00	 2790.25	-1663.75	 1896.61
     61.5370	 2823.00	 2798.76	-1639.26	 1896.44
     61.5630	 2758.00	 2807.64	-1713.14	 1896.27
     61.5890	 2736.00	 2816.91	-1744.41	 1896.11
     61.6150	 2760.00	 2826.58	-1730.08	 1895.94
     61.6410	 2740.00	 2836.68	-1760.18	 1895.78
     61.6670	 2782.00	 2847.21	-1728.71	 1895.61
     61.6930	 2838.00	 2858.22	-1683.72	 1895.45
     61.7190	 2819.00	 2869.71	-1714.21	 1895.28
     61.7450	 2797.00	 2881.71	-1748.21	 1895.12
     61.7710	 2820.00	 2894.26	-1737.76	 1894.95
     61.7970	 2907.00	 2907.38	-1663.88	 1894.78
     61.8230	 2774.00	 2921.11	-1810.61	 1894.62
     61.8490	 2746.00	 2935.48	-1852.98	 1894.45
     61.8750	 2852.00	 2950.54	-1762.04	 1894.29
     61.9010	 2878.00	 2966.32	-1751.82	 1894.12
     61.9270	 2893.00	 2982.89	-1753.39	 1893.96
     61.9530	 2898.00	 3000.29	-1765.79	 1893.79
     61.9790	 2811.00	 3018.60	-1871.10	 1893.62
     62.0050	 2856.00	 3037.88	-1845.38	 1893.46
     62.0310	 2909.00	 3058.21	-1812.71	 1893.29
     62.0570	 2918.00	 3079.69	-1825.19	 1893.13
     62.0830	 2953.00	 3102.43	-1812.93	 1892.96
     62.1090	 3027.00	 3126.56	-1763.06	 1892.80
     62.1350	 2978.00	 3152.22	-1837.72	 1892.63
     62.1610	 3064.00	 3179.56	-1779.06	 1892.47
     62.1870	 3169.00	 3208.78	-1703.28	 1892.30
     62.2130	 3197.00	 3240.11	-1706.61	 1892.13
     62.2390	 3130.00	 3273.79	-1807.29	 1891.97
     62.2650	 3250.00	 3310.12	-1723.62	 1891.80
     62.2910	 3216.00	 3349.42	-1796.92	 1891.64
     62.3170	 3443.00	 3392.08	-1612.58	 1891.47
     62.3430	 3400.00	 3438.53	-1702.03	 1891.31
     62.3690	 3448.00	 3489.25	-1704.75	 1891.14
     62.3950	 3535.00	 3544.78	-1673.28	 1890.98
     62.4210	 3709.00	 3605.70	-1560.20	 1890.81
     62.4470	 3738.00	 3672.65	-1598.15	 1890.64
     62.4730	 3861.00	 3746.27	-1548.77	 1890.48
     62.4990	 4079.00	 3827.20	-1411.70	 1890.31
     62.5250	 4170.00	 3916.00	-1409.50	 1890.15
     62.5510	 4225.00	 4013.06	-1451.56	 1889.98
     62.5770	 4347.00	 4118.47	-1434.97	 1889.82
     62.6030	 4384.00	 4231.90	-1511.40	 1889.65
     62.6290	 4465.00	 4352.27	-1550.77	 1889.48
     62.6550	 4686.00	 4477.61	-1455.11	 1889.32
     62.6810	 4629.00	 4604.79	-1639.29	 1889.15
     62.7070	 4728.00	 4729.54	-1665.04	 1888.99
     62.7330	 4802.00	 4846.42	-1707.92	 1888.82
     62.7590	 4898.00	 4949.48	-1714.98	 1888.66
     62.7850	 4828.00	 5032.90	-1868.40	 1888.49
     62.8110	 5044.00	 5092.07	-1711.57	 1888.33
     62.8370	 5117.00	 5124.23	-1670.73	 1888.16
     62.8630	 5092.00	 5128.81	-1700.31	 1887.99
     62.8890	 4972.00	 5107.18	-1798.68	 1887.83
     62.9150	 4944.00	 5061.86	-1781.36	 1887.66
     62.9410	 5012.00	 4995.86	-1647.36	 1887.50
     62.9670	 4969.00	 4912.20	-1606.70	 1887.33
     62.9930	 4820.00	 4813.86	-1657.36	 1887.17
     63.0190	 4783.00	 4703.90	-1584.40	 1887.00
     63.0450	 4651.00	 4585.62	-1598.12	 1886.83
     63.0710	 4574.00	 4462.53	-1552.03	 1886.67
     63.0970	 4406.00	 4338.07	-1595.57	 1886.50
     63.1230	 4346.00	 4215.32	-1532.82	 1886.34
     63.1490	 4322.00	 4096.80	-1438.30	 1886.17
     63.1750	 4214.00	 3984.32	-1433.82	 1886.01
     63.2010	 4048.00	 3879.04	-1494.54	 1885.84
     63.2270	 3919.00	 3781.47	-1525.97	 1885.68
     63.2530	 3865.00	 3691.71	-1490.21	 1885.51
     63.2790	 3630.00	 3609.57	-1643.07	 1885.34
     63.3050	 3596.00	 3534.60	-1602.10	 1885.18
     63.3310	 3470.00	 3466.30	-1659.80	 1885.01
     63.3570	 3462.00	 3404.11	-1605.61	 1884.85
     63.3830	 3375.00	 3347.44	-1635.94	 1884.68
     63.4090	 3256.00	 3295.75	-1703.25	 1884.52
     63.4350	 3173.00	 3248.52	-1739.02	 1884.35
     63.4610	 3186.00	 3205.28	-1682.78	 1884.18
     63.4870	 3049.00	 3165.61	-1780.11	 1884.02
     63.5130	 3007.00	 3129.11	-1785.61	 1883.85
     63.5390	 2985.00	 3095.47	-1773.97	 1883.69
     63.5650	 2900.00	 3064.37	-1827.87	 1883.52
     63.5910	 2888.00	 3035.55	-1811.05	 1883.36
     63.6170	 2918.00	 3008.79	-1754.29	 1883.19
     63.6430	 2895.00	 2983.86	-1752.36	 1883.03
     63.6690	 2800.00	 2960.60	-1824.10	 1882.86
     63.6950	 2784.00	 2938.85	-1818.35	 1882.69
     63.7210	 2813.00	 2918.46	-1768.96	 1882.53
     63.7470	 2816.00	 2899.32	-1746.82	 1882.36
     63.7730	 2775.00	 2881.30	-1769.80	 1882.20
     63.7990	 2767.00	 2864.33	-1760.83	 1882.03
     63.8250	 2756.00	 2848.31	-1755.81	 1881.87
     63.8510	 2688.00	 2833.17	-1808.67	 1881.70
     63.8770	 2723.00	 2818.84	-1759.34	 1881.53
     63.9030	 2760.00	 2805.25	-1708.75	 1881.37
     63.9290	 2717.00	 2792.35	-1738.85	 1881.20
     63.9550	 2704.00	 2780.10	-1739.60	 1881.04
     63.9810	 2694.00	 2768.45	-1737.95	 1880.87
     64.0070	 2663.00	 2757.36	-1757.86	 1880.71
     64.0330	 2702.00	 2746.78	-1708.28	 1880.54
     64.0590	 2687.00	 2736.70	-1713.20	 1880.38
     64.0850	 2625.00	 2727.08	-1765.58	 1880.21
     64.1110	 2667.00	 2717.88	-1714.38	 1880.04
     64.1370	 2665.00	 2709.09	-1707.59	 1879.88
     64.1630	 2611.00	 2700.68	-1753.18	 1879.71
     64.1890	 2561.00	 2692.63	-1795.13	 1879.55
     64.2150	 2577.00	 2684.92	-1771.42	 1879.38
     64.2410	 2628.00	 2677.53	-1713.03	 1879.22
     64.2670	 2624.00	 2670.45	-1709.95	 1879.05
     64.2930	 2625.00	 2663.65	-1702.15	 1878.88
     64.3190	 2665.00	 2657.12	-1655.62	 1878.72
     64.3450	 2591.00	 2650.86	-1723.36	 1878.55
     64.3710	 2591.00	 2644.84	-1717.34	 1878.39
     64.3970	 2599.00	 2639.06	-1703.56	 1878.22
     64.4230	 2555.00	 2633.50	-1742.00	 1878.06
     64.4490	 2588.00	 2628.15	-1703.65	 1877.89
     64.4750	 2522.00	 2623.01	-1764.51	 1877.73
     64.5010	 2515.00	 2618.06	-1766.56	 1877.56
     64.5270	 2590.00	 2613.30	-1686.80	 1877.39
     64.5530	 2647.00	 2608.72	-1625.22	 1877.23
     64.5790	 2586.00	 2604.31	-1681.81	 1877.06
     64.6050	 2613.00	 2600.06	-1650.56	 1876.90
     64.6310	 2545.00	 2595.96	-1714.46	 1876.73
     64.6570	 2573.00	 2592.03	-1682.53	 1876.57
     64.6830	 2594.00	 2588.23	-1657.73	 1876.40
     64.7090	 2592.00	 2584.57	-1656.07	 1876.23
     64.7350	 2471.00	 2581.05	-1773.55	 1876.07
     64.7610	 2490.00	 2577.66	-1751.16	 1875.90
     64.7870	 2567.00	 2574.39	-1670.89	 1875.74
     64.8130	 2528.00	 2571.25	-1706.75	 1875.57
     64.8390	 2603.00	 2568.22	-1628.72	 1875.41
     64.8650	 2572.00	 2565.30	-1656.80	 1875.24
     64.8910	 2467.00	 2562.49	-1758.99	 1875.08
     64.9170	 2465.00	 2559.79	-1758.29	 1874.91
     64.9430	 2486.00	 2557.19	-1734.69	 1874.74
     64.9690	 2520.00	 2554.70	-1698.20	 1874.58
     64.9950	 2501.00	 2552.29	-1714.79	 1874.41
     65.0210	 2521.00	 2549.99	-1692.49	 1874.25
     65.0470	 2639.00	 2547.77	-1572.27	 1874.08
     65.0730	 2585.00	 2545.64	-1624.14	 1873.92
     65.0990	 2522.00	 2543.60	-1685.10	 1873.75
     65.1250	 2499.00	 2541.65	-1706.15	 1873.58
     65.1510	 2432.00	 2539.78	-1771.28	 1873.42
     65.1770	 2535.00	 2537.99	-1666.49	 1873.25
     65.2030	 2469.00	 2536.27	-1730.77	 1873.09
     65.2290	 2534.00	 2534.64	-1664.14	 1872.92
     65.2550	 2450.00	 2533.08	-1746.58	 1872.76
     65.2810	 2614.00	 2531.60	-1581.10	 1872.59
     65.3070	 2471.00	 2530.19	-1722.69	 1872.43
     65.3330	 2535.00	 2528.86	-1657.36	 1872.26
     65.3590	 2503.00	 2527.60	-1688.10	 1872.09
     65.3850	 2553.00	 2526.40	-1636.90	 1871.93
     65.4110	 2492.00	 2525.28	-1696.78	 1871.76
     65.4370	 2597.00	 2524.22	-1590.72	 1871.60
     65.4630	 2544.00	 2523.23	-1642.73	 1871.43
     65.4890	 2459.00	 2522.31	-1726.81	 1871.27
     65.5150	 2467.00	 2521.45	-1717.95	 1871.10
     65.5410	 2568.00	 2520.66	-1616.16	 1870.94
     65.5670	 2519.00	 2519.94	-1664.44	 1870.77
     65.5930	 2483.00	 2519.27	-1699.77	 1870.60
     65.6190	 2493.00	 2518.67	-1689.17	 1870.44
     65.6450	 2579.00	 2518.14	-1602.64	 1870.27
     65.6710	 2529.00	 2517.66	-1652.16	 1870.11
     65.6970	 2429.00	 2517.25	-1751.75	 1869.94
     65.7230	 2448.00	 2516.90	-1732.40	 1869.78
     65.7490	 2449.00	 2516.61	-1731.11	 1869.61
     65.7750	 2473.00	 2516.38	-1706.88	 1869.44
     65.8010	 2465.00	 2516.21	-1714.71	 1869.28
     65.8270	 2512.00	 2516.10	-1667.60	 1869.11
     65.8530	 2562.00	 2516.04	-1617.54	 1868.95
     65.8790	 2521.00	 2516.05	-1658.55	 1868.78
     65.9050	 2453.00	 2516.11	-1726.61	 1868.62
     65.9310	 2495.00	 2516.23	-1684.73	 1868.45
     65.9570	 2577.00	 2516.40	-1602.90	 1868.29
     65.9830	 2522.00	 2516.62	-1658.12	 1868.12
     66.0090	 2511.00	 2516.90	-1669.40	 1867.95
     66.0350	 2504.00	 2517.23	-1676.73	 1867.79
     66.0610	 2484.00	 2517.61	-1697.11	 1867.62
     66.0870	 2531.00	 2518.04	-1650.54	 1867.46
     66.1130	 2584.00	 2518.51	-1598.01	 1867.29
     66.1390	 2560.00	 2519.03	-1622.53	 1867.13
     66.1650	 2527.00	 2519.59	-1656.09	 1866.96
     66.1910	 2542.00	 2520.19	-1641.69	 1866.79
     66.2170	 2478.00	 2520.83	-1706.33	 1866.63
     66.2430	 2433.00	 2521.50	-1752.00	 1866.46
     66.2690	 2489.00	 2522.20	-1696.70	 1866.30
     66.2950	 2496.00	 2522.92	-1690.42	 1866.13
     66.3210	 2553.00	 2523.66	-1634.16	 1865.97
     66.3470	 2572.00	 2524.43	-1615.93	 1865.80
     66.3730	 2560.00	 2525.20	-1628.70	 1865.64
     66.3990	 2520.00	 2525.98	-1669.48	 1865.47
     66.4250	 2451.00	 2526.76	-1739.26	 1865.30
     66.4510	 2490.00	 2527.54	-1701.04	 1865.14
     66.4770	 2517.00	 2528.30	-1674.80	 1864.97
     66.5030	 2527.00	 2529.05	-1665.55	 1864.81
     66.5290	 2530.00	 2529.77	-1663.27	 1864.64
     66.5550	 2489.00	 2530.47	-1704.97	 1864.48
     66.5810	 2516.00	 2531.12	-1678.62	 1864.31
     66.6070	 2564.00	 2531.73	-1631.23	 1864.14
     66.6330	 2578.00	 2532.28	-1617.78	 1863.98
     66.6590	 2530.00	 2532.78	-1666.28	 1863.81
     66.6850	 2480.00	 2533.20	-1716.70	 1863.65
     66.7110	 2490.00	 2533.56	-1707.06	 1863.48
     66.7370	 2521.00	 2533.83	-1676.33	 1863.32
     66.7630	 2555.00	 2534.01	-1642.51	 1863.15
     66.7890	 2524.00	 2534.10	-1673.60	 1862.99
     66.8150	 2500.00	 2534.10	-1697.60	 1862.82
     66.8410	 2505.00	 2533.98	-1692.48	 1862.65
     66.8670	 2528.00	 2533.76	-1669.26	 1862.49
     66.8930	 2554.00	 2533.43	-1642.93	 1862.32
     66.9190	 2559.00	 2532.99	-1637.49	 1862.16
     66.9450	 2534.00	 2532.43	-1661.93	 1861.99
     66.9710	 2508.00	 2531.75	-1687.25	 1861.83
     66.9970	 2489.00	 2530.95	-1705.45	 1861.66
     67.0230	 2471.00	 2530.03	-1722.53	 1861.49
     67.0490	 2494.00	 2529.00	-1698.50	 1861.33
     67.0750	 2466.00	 2527.86	-1725.36	 1861.16
     67.1010	 2521.00	 2526.60	-1669.10	 1861.00
     67.1270	 2431.00	 2525.23	-1757.73	 1860.83
     67.1530	 2508.00	 2523.76	-1679.26	 1860.67
     67.1790	 2533.00	 2522.19	-1652.69	 1860.50
     67.2050	 2535.00	 2520.53	-1649.03	 1860.34
     67.2310	 2572.00	 2518.78	-1610.28	 1860.17
     67.2570	 2604.00	 2516.94	-1576.44	 1860.00
     67.2830	 2517.00	 2515.03	-1661.53	 1859.84
     67.3090	 2485.00	 2513.06	-1691.56	 1859.67
     67.3350	 2540.00	 2511.01	-1634.51	 1859.51
     67.3610	 2470.00	 2508.92	-1702.42	 1859.34
     67.3870	 2434.00	 2506.77	-1736.27	 1859.18
     67.4130	 2522.00	 2504.58	-1646.08	 1859.01
     67.4390	 2554.00	 2502.36	-1611.86	 1858.84
     67.4650	 2580.00	 2500.11	-1583.61	 1858.68
     67.4910	 2448.00	 2497.83	-1713.33	 1858.51
     67.5170	 2465.00	 2495.54	-1694.04	 1858.35
     67.5430	 2435.00	 2493.24	-1721.74	 1858.18
     67.5690	 2559.00	 2490.93	-1595.43	 1858.02
     67.5950	 2564.00	 2488.61	-1588.11	 1857.85
     67.6210	 2532.00	 2486.31	-1617.81	 1857.69
     67.6470	 2555.00	 2484.01	-1592.51	 1857.52
     67.6730	 2579.00	 2481.72	-1566.22	 1857.35
     67.6990	 2534.00	 2479.45	-1608.95	 1857.19
     67.7250	 2535.00	 2477.20	-1605.70	 1857.02
     67.7510	 2501.00	 2474.96	-1637.46	 1856.86
     67.7770	 2569.00	 2472.76	-1567.26	 1856.69
     67.8030	 2455.00	 2470.60	-1679.10	 1856.55
     67.8290	 2557.00	 2468.50	-1575.00	 1856.44
     67.8550	 2533.00	 2466.43	-1596.93	 1856.32
     67.8810	 2506.00	 2464.40	-1621.90	 1856.21
     67.9070	 2515.00	 2462.40	-1610.90	 1856.10
     67.9330	 2467.00	 2460.43	-1656.93	 1855.99
     67.9590	 2548.00	 2458.49	-1573.99	 1855.88
     67.9850	 2561.00	 2456.60	-1559.10	 1855.77
     68.0110	 2446.00	 2454.73	-1672.23	 1855.65
     68.0370	 2474.00	 2452.91	-1642.41	 1855.54
     68.0630	 2419.00	 2451.12	-1695.62	 1855.43
     68.0890	 2520.00	 2449.37	-1592.87	 1855.32
     68.1150	 2407.00	 2447.65	-1704.15	 1855.21
     68.1410	 2508.00	 2445.97	-1601.47	 1855.10
     68.1670	 2492.00	 2444.33	-1615.83	 1854.99
     68.1930	 2507.00	 2442.72	-1599.22	 1854.87
     68.2190	 2491.00	 2441.15	-1613.65	 1854.76
     68.2450	 2366.00	 2439.61	-1737.11	 1854.65
     68.2710	 2459.00	 2438.11	-1642.61	 1854.54
     68.2970	 2435.00	 2436.64	-1665.14	 1854.43
     68.3230	 2482.00	 2435.20	-1616.70	 1854.32
     68.3490	 2443.00	 2433.80	-1654.30	 1854.21
     68.3750	 2452.00	 2432.42	-1643.92	 1854.09
     68.4010	 2471.00	 2431.08	-1623.58	 1853.98
     68.4270	 2484.00	 2429.77	-1609.27	 1853.87
     68.4530	 2427.00	 2428.49	-1664.99	 1853.76
     68.4790	 2450.00	 2427.23	-1640.73	 1853.65
     68.5050	 2414.00	 2426.01	-1675.51	 1853.54
     68.5310	 2467.00	 2424.81	-1621.31	 1853.42
     68.5570	 2512.00	 2423.64	-1575.14	 1853.31
     68.5830	 2539.00	 2422.50	-1547.00	 1853.20
     68.6090	 2453.00	 2421.38	-1631.88	 1853.09
     68.6350	 2456.00	 2420.29	-1627.79	 1852.98
     68.6610	 2541.00	 2419.22	-1541.72	 1852.87
     68.6870	 2575.00	 2418.17	-1506.67	 1852.76
     68.7130	 2539.00	 2417.15	-1541.65	 1852.64
     68.7390	 2527.00	 2416.15	-1552.65	 1852.53
     68.7650	 2472.00	 2415.17	-1606.67	 1852.42
     68.7910	 2474.00	 2414.22	-1603.72	 1852.31
     68.8170	 2460.00	 2413.28	-1616.78	 1852.20
     68.8430	 2403.00	 2412.36	-1672.86	 1852.09
     68.8690	 2388.00	 2411.47	-1686.97	 1851.98
     68.8950	 2457.00	 2410.59	-1617.09	 1851.86
     68.9210	 2396.00	 2409.73	-1677.23	 1851.75
     68.9470	 2379.00	 2408.88	-1693.38	 1851.64
     68.9730	 2411.00	 2408.06	-1660.56	 1851.53
     68.9990	 2411.00	 2407.25	-1659.75	 1851.42
     69.0250	 2430.00	 2406.46	-1639.96	 1851.31
     69.0510	 2429.00	 2405.68	-1640.18	 1851.19
     69.0770	 2437.00	 2404.92	-1631.42	 1851.08
     69.1030	 2475.00	 2404.18	-1592.68	 1850.97
     69.1290	 2456.00	 2403.44	-1610.94	 1850.86
     69.1550	 2393.00	 2402.73	-1673.23	 1850.75
     69.1810	 2414.00	 2402.02	-1651.52	 1850.64
     69.2070	 2449.00	 2401.33	-1615.83	 1850.53
     69.2330	 2434.00	 2400.66	-1630.16	 1850.41
     69.2590	 2430.00	 2399.99	-1633.49	 1850.30
     69.2850	 2424.00	 2399.34	-1638.84	 1850.19
     69.3110	 2413.00	 2398.70	-1649.20	 1850.08
     69.3370	 2411.00	 2398.07	-1650.57	 1849.97
     69.3630	 2369.00	 2397.46	-1691.96	 1849.86
     69.3890	 2299.00	 2396.85	-1761.35	 1849.75
     69.4150	 2307.00	 2396.26	-1752.76	 1849.63
     69.4410	 2404.00	 2395.67	-1655.17	 1849.52
     69.4670	 2441.00	 2395.10	-1617.60	 1849.41
     69.4930	 2391.00	 2394.53	-1667.03	 1849.30
     69.5190	 2459.00	 2393.98	-1598.48	 1849.19
     69.5450	 2452.00	 2393.43	-1604.93	 1849.08
     69.5710	 2397.00	 2392.90	-1659.40	 1848.96
     69.5970	 2399.00	 2392.37	-1656.87	 1848.85
     69.6230	 2392.00	 2391.85	-1663.35	 1848.74
     69.6490	 2362.00	 2391.34	-1692.84	 1848.63
     69.6750	 2370.00	 2390.84	-1684.34	 1848.52
     69.7010	 2366.00	 2390.35	-1687.85	 1848.41
     69.7270	 2348.00	 2389.86	-1705.36	 1848.30
     69.7530	 2363.00	 2389.39	-1689.89	 1848.18
     69.7790	 2392.00	 2388.92	-1660.42	 1848.07
     69.8050	 2360.00	 2388.45	-1691.95	 1847.96
     69.8310	 2247.00	 2388.00	-1804.50	 1847.85
     69.8570	 2327.00	 2387.55	-1724.05	 1847.74
     69.8830	 2369.00	 2387.11	-1681.61	 1847.63
     69.9090	 2365.00	 2386.68	-1685.18	 1847.52
     69.9350	 2398.00	 2386.25	-1651.75	 1847.40
     69.9610	 2348.00	 2385.83	-1701.33	 1847.29
     69.9870	 2403.00	 2385.41	-1645.91	 1847.18
     70.0130	 2401.00	 2385.00	-1647.50	 1847.07
     70.0390	 2372.00	 2384.60	-1676.10	 1846.96
     70.0650	 2346.00	 2384.20	-1701.70	 1846.85
     70.0910	 2410.00	 2383.81	-1637.31	 1846.73
     70.1170	 2336.00	 2383.43	-1710.93	 1846.62
     70.1430	 2343.00	 2383.05	-1703.55	 1846.51
     70.1690	 2360.00	 2382.68	-1686.18	 1846.40
     70.1950	 2344.00	 2382.31	-1701.81	 1846.29
     70.2210	 2276.00	 2381.94	-1769.44	 1846.18
     70.2470	 2336.00	 2381.58	-1709.08	 1846.07
     70.2730	 2353.00	 2381.23	-1691.73	 1845.95
     70.2990	 2342.00	 2380.88	-1702.38	 1845.84
     70.3250	 2387.00	 2380.54	-1657.04	 1845.73
     70.3510	 2387.00	 2380.20	-1656.70	 1845.62
     70.3770	 2338.00	 2379.87	-1705.37	 1845.51
     70.4030	 2320.00	 2379.54	-1723.04	 1845.40
     70.4290	 2315.00	 2379.22	-1727.72	 1845.29
     70.4550	 2467.00	 2378.90	-1575.40	 1845.17
     70.4810	 2333.00	 2378.58	-1709.08	 1845.06
     70.5070	 2280.00	 2378.27	-1761.77	 1844.95
     70.5330	 2374.00	 2377.96	-1667.46	 1844.84
     70.5590	 2303.00	 2377.66	-1738.16	 1844.73
     70.5850	 2336.00	 2377.36	-1704.86	 1844.62
     70.6110	 2310.00	 2377.07	-1730.57	 1844.50
     70.6370	 2398.00	 2376.78	-1642.28	 1844.39
     70.6630	 2298.00	 2376.49	-1741.99	 1844.28
     70.6890	 2298.00	 2376.21	-1741.71	 1844.17
     70.7150	 2339.00	 2375.93	-1700.43	 1844.06
     70.7410	 2361.00	 2375.66	-1678.16	 1843.95
     70.7670	 2372.00	 2375.39	-1666.89	 1843.84
     70.7930	 2307.00	 2375.12	-1731.62	 1843.72
     70.8190	 2323.00	 2374.86	-1715.36	 1843.61
     70.8450	 2238.00	 2374.60	-1800.10	 1843.50
     70.8710	 2296.00	 2374.35	-1741.85	 1843.39
     70.8970	 2358.00	 2374.10	-1679.60	 1843.28
     70.9230	 2377.00	 2373.85	-1660.35	 1843.17
     70.9490	 2356.00	 2373.60	-1681.10	 1843.06
     70.9750	 2335.00	 2373.36	-1701.86	 1842.94
     71.0010	 2302.00	 2373.13	-1734.63	 1842.83
     71.0270	 2397.00	 2372.89	-1639.39	 1842.72
     71.0530	 2384.00	 2372.66	-1652.16	 1842.61
     71.0790	 2344.00	 2372.43	-1691.93	 1842.50
     71.1050	 2320.00	 2372.21	-1715.71	 1842.39
     71.1310	 2320.00	 2371.99	-1715.49	 1842.27
     71.1570	 2310.00	 2371.77	-1725.27	 1842.16
     71.1830	 2329.00	 2371.56	-1706.06	 1842.05
     71.2090	 2395.00	 2371.35	-1639.85	 1841.94
     71.2350	 2337.00	 2371.15	-1697.65	 1841.83
     71.2610	 2303.00	 2370.94	-1731.44	 1841.72
     71.2870	 2328.00	 2370.74	-1706.24	 1841.61
     71.3130	 2322.00	 2370.55	-1712.05	 1841.49
     71.3390	 2307.00	 2370.35	-1726.85	 1841.38
     71.3650	 2304.00	 2370.16	-1729.66	 1841.27
     71.3910	 2315.00	 2369.98	-1718.48	 1841.16
     71.4170	 2313.00	 2369.80	-1720.30	 1841.05
     71.4430	 2321.00	 2369.62	-1712.12	 1840.94
     71.4690	 2385.00	 2369.44	-1647.94	 1840.83
     71.4950	 2341.00	 2369.27	-1691.77	 1840.71
     71.5210	 2299.00	 2369.10	-1733.60	 1840.60
     71.5470	 2374.00	 2368.93	-1658.43	 1840.49
     71.5730	 2408.00	 2368.77	-1624.27	 1840.38
     71.5990	 2383.00	 2368.61	-1649.11	 1840.27
     71.6250	 2298.00	 2368.45	-1733.95	 1840.16
     71.6510	 2280.00	 2368.03	-1751.53	 1839.77
     71.6770	 2296.00	 2366.73	-1734.23	 1838.51
     71.7030	 2307.00	 2365.44	-1721.94	 1837.26
     71.7290	 2305.00	 2364.15	-1722.65	 1836.00
     71.7550	 2324.00	 2362.87	-1702.37	 1834.74
     71.7810	 2337.00	 2361.59	-1688.09	 1833.49
     71.8070	 2293.00	 2360.31	-1730.81	 1832.23
     71.8330	 2286.00	 2359.04	-1736.54	 1830.97
     71.8590	 2343.00	 2357.77	-1678.27	 1829.71
     71.8850	 2378.00	 2356.50	-1642.00	 1828.46
     71.9110	 2354.00	 2355.24	-1664.74	 1827.20
     71.9370	 2344.00	 2353.98	-1673.48	 1825.94
     71.9630	 2356.00	 2352.72	-1660.22	 1824.69
     71.9890	 2354.00	 2351.47	-1660.97	 1823.43
     72.0150	 2325.00	 2350.23	-1688.73	 1822.17
     72.0410	 2308.00	 2348.98	-1704.48	 1820.91
     72.0670	 2351.00	 2347.74	-1660.24	 1819.66
     72.0930	 2322.00	 2346.51	-1688.01	 1818.40
     72.1190	 2275.00	 2345.27	-1733.77	 1817.14
     72.1450	 2334.00	 2344.05	-1673.55	 1815.89
     72.1710	 2370.00	 2342.82	-1636.32	 1814.63
     72.1970	 2350.00	 2341.60	-1655.10	 1813.37
     72.2230	 2302.00	 2340.39	-1701.89	 1812.11
     72.2490	 2264.00	 2339.18	-1738.68	 1810.86
     72.2750	 2324.00	 2337.97	-1677.47	 1809.60
     72.3010	 2315.00	 2336.77	-1685.27	 1808.34
     72.3270	 2323.00	 2335.58	-1676.08	 1807.09
     72.3530	 2281.00	 2334.38	-1716.88	 1805.83
     72.3790	 2331.00	 2333.20	-1665.70	 1804.57
     72.4050	 2274.00	 2332.02	-1721.52	 1803.31
     72.4310	 2248.00	 2330.84	-1746.34	 1802.06
     72.4570	 2299.00	 2329.67	-1694.17	 1800.80
     72.4830	 2283.00	 2328.50	-1709.00	 1799.54
     72.5090	 2273.00	 2327.34	-1717.84	 1798.29
     72.5350	 2237.00	 2326.18	-1752.68	 1797.03
     72.5610	 2299.00	 2325.03	-1689.53	 1795.77
     72.5870	 2309.00	 2323.89	-1678.39	 1794.51
     72.6130	 2301.00	 2322.75	-1685.25	 1793.26
     72.6390	 2239.00	 2321.61	-1746.11	 1792.00
     72.6650	 2257.00	 2320.49	-1726.99	 1790.74
     72.6910	 2284.00	 2319.36	-1698.86	 1789.49
     72.7170	 2243.00	 2318.25	-1738.75	 1788.23
     72.7430	 2372.00	 2317.14	-1608.64	 1786.97
     72.7690	 2305.00	 2316.04	-1674.54	 1785.71
     72.7950	 2320.00	 2314.95	-1658.45	 1784.46
     72.8210	 2240.00	 2313.86	-1737.36	 1783.20
     72.8470	 2257.00	 2312.78	-1719.28	 1781.94
     72.8730	 2310.00	 2311.70	-1665.20	 1780.69
     72.8990	 2324.00	 2310.64	-1650.14	 1779.43
     72.9250	 2238.00	 2309.58	-1735.08	 1778.17
     72.9510	 2314.00	 2308.53	-1658.03	 1776.91
     72.9770	 2234.00	 2307.49	-1736.99	 1775.66
     73.0030	 2231.00	 2306.46	-1738.96	 1774.40
     73.0290	 2247.00	 2305.43	-1721.93	 1773.14
     73.0550	 2284.00	 2304.42	-1683.92	 1771.89
     73.0810	 2305.00	 2303.41	-1661.91	 1770.63
     73.1070	 2257.00	 2302.41	-1708.91	 1769.37
     73.1330	 2266.00	 2301.40	-1698.90	 1768.11
     73.1590	 2258.00	 2300.41	-1705.91	 1766.86
     73.1850	 2237.00	 2299.45	-1725.95	 1765.60
     73.2110	 2207.00	 2298.49	-1754.99	 1764.34
     73.2370	 2334.00	 2297.55	-1627.05	 1763.09
     73.2630	 2223.00	 2296.61	-1737.11	 1761.83
     73.2890	 2300.00	 2295.69	-1659.19	 1760.57
     73.3150	 2259.00	 2294.78	-1699.28	 1759.31
     73.3410	 2365.00	 2293.88	-1592.38	 1758.06
     73.3670	 2210.00	 2292.99	-1746.49	 1756.80
     73.3930	 2298.00	 2292.12	-1657.62	 1755.54
     73.4190	 2337.00	 2291.26	-1617.76	 1754.29
     73.4450	 2261.00	 2290.42	-1692.92	 1753.03
     73.4710	 2215.00	 2289.59	-1738.09	 1751.77
     73.4970	 2220.00	 2288.77	-1732.27	 1750.51
     73.5230	 2271.00	 2287.97	-1680.47	 1749.26
     73.5490	 2304.00	 2287.19	-1646.69	 1748.00
     73.5750	 2288.00	 2286.42	-1661.92	 1746.74
     73.6010	 2263.00	 2285.67	-1686.17	 1745.49
     73.6270	 2309.00	 2284.93	-1639.43	 1744.23
     73.6530	 2288.00	 2284.21	-1659.71	 1742.97
     73.6790	 2286.00	 2283.51	-1661.01	 1741.71
     73.7050	 2271.00	 2282.84	-1675.34	 1740.46
     73.7310	 2308.00	 2282.18	-1637.68	 1739.20
     73.7570	 2230.00	 2281.54	-1715.04	 1737.94
     73.7830	 2276.00	 2280.92	-1668.42	 1736.69
     73.8090	 2302.00	 2280.32	-1641.82	 1735.43
     73.8350	 2291.00	 2279.74	-1652.24	 1734.17
     73.8610	 2283.00	 2279.19	-1659.69	 1732.91
     73.8870	 2322.00	 2278.66	-1620.16	 1731.66
     73.9130	 2346.00	 2278.16	-1595.66	 1730.40
     73.9390	 2328.00	 2277.68	-1613.18	 1729.14
     73.9650	 2299.00	 2277.22	-1641.72	 1727.89
     73.9910	 2309.00	 2276.80	-1631.30	 1726.63
     74.0170	 2294.00	 2276.40	-1645.90	 1725.37
     74.0430	 2279.00	 2276.03	-1660.53	 1724.11
     74.0690	 2321.00	 2275.68	-1618.18	 1722.86
     74.0950	 2261.00	 2275.37	-1677.87	 1721.60
     74.1210	 2346.00	 2275.09	-1592.59	 1720.34
     74.1470	 2358.00	 2274.84	-1580.34	 1719.09
     74.1730	 2247.00	 2274.63	-1691.13	 1717.83
     74.1990	 2268.00	 2274.45	-1669.95	 1716.57
     74.2250	 2285.00	 2274.30	-1652.80	 1715.31
     74.2510	 2316.00	 2274.19	-1621.69	 1714.06
     74.2770	 2305.00	 2274.12	-1632.62	 1712.80
     74.3030	 2281.00	 2274.09	-1656.59	 1711.54
     74.3290	 2324.00	 2274.10	-1613.60	 1710.29
     74.3550	 2355.00	 2274.16	-1582.66	 1709.03
     74.3810	 2355.00	 2274.26	-1582.76	 1707.77
     74.4070	 2315.00	 2274.40	-1622.90	 1706.51
     74.4330	 2296.00	 2274.60	-1642.10	 1705.26
     74.4590	 2280.00	 2274.85	-1658.35	 1704.00
     74.4850	 2281.00	 2275.15	-1657.65	 1702.74
     74.5110	 2305.00	 2275.52	-1634.02	 1701.49
     74.5370	 2310.00	 2275.94	-1629.44	 1700.23
     74.5630	 2320.00	 2276.44	-1619.94	 1698.97
     74.5890	 2325.00	 2277.00	-1615.50	 1697.71
     74.6150	 2288.00	 2277.65	-1653.15	 1696.46
     74.6410	 2251.00	 2278.38	-1690.88	 1695.20
     74.6670	 2312.00	 2279.21	-1630.71	 1693.94
     74.6930	 2282.00	 2280.15	-1661.65	 1692.69
     74.7190	 2238.00	 2281.20	-1706.70	 1691.43
     74.7450	 2256.00	 2282.37	-1689.87	 1690.17
     74.7710	 2276.00	 2283.70	-1671.20	 1688.91
     74.7970	 2302.00	 2285.18	-1646.68	 1687.66
     74.8230	 2284.00	 2286.84	-1666.34	 1686.40
     74.8490	 2287.00	 2288.70	-1665.20	 1685.14
     74.8750	 2251.00	 2290.79	-1703.29	 1683.89
     74.9010	 2299.00	 2293.12	-1657.62	 1682.63
     74.9270	 2339.00	 2295.74	-1620.24	 1681.37
     74.9530	 2384.00	 2298.41	-1577.91	 1679.87
     74.9790	 2378.00	 2301.31	-1586.81	 1678.25
     75.0050	 2316.00	 2304.57	-1652.07	 1676.63
     75.0310	 2298.00	 2308.21	-1673.71	 1675.01
     75.0570	 2312.00	 2312.26	-1663.76	 1673.40
     75.0830	 2397.00	 2316.69	-1583.19	 1671.78
     75.1090	 2413.00	 2321.50	-1572.00	 1670.16
     75.1350	 2345.00	 2326.61	-1645.11	 1668.54
     75.1610	 2315.00	 2331.93	-1680.43	 1666.93
     75.1870	 2312.00	 2337.30	-1688.80	 1665.31
     75.2130	 2369.00	 2342.52	-1637.02	 1663.69
     75.2390	 2322.00	 2347.34	-1688.84	 1662.07
     75.2650	 2327.00	 2351.50	-1688.00	 1660.46
     75.2910	 2359.00	 2354.70	-1659.20	 1658.84
     75.3170	 2370.00	 2356.74	-1650.24	 1657.22
     75.3430	 2375.00	 2357.46	-1645.96	 1655.60
     75.3690	 2290.00	 2356.83	-1730.33	 1653.99
     75.3950	 2270.00	 2354.88	-1748.38	 1652.37
     75.4210	 2299.00	 2351.75	-1716.25	 1650.75
     75.4470	 2376.00	 2347.59	-1635.09	 1649.13
     75.4730	 2280.00	 2342.54	-1726.04	 1647.52
     75.4990	 2308.00	 2336.74	-1692.24	 1645.90
     75.5250	 2273.00	 2330.28	-1720.78	 1644.28
     75.5510	 2306.00	 2323.23	-1680.73	 1642.66
     75.5770	 2205.00	 2315.69	-1774.19	 1641.05
     75.6030	 2215.00	 2307.75	-1756.25	 1639.43
     75.6290	 2277.00	 2299.54	-1686.04	 1637.81
     75.6550	 2249.00	 2291.19	-1705.69	 1636.19
     75.6810	 2271.00	 2282.85	-1675.35	 1634.58
     75.7070	 2294.00	 2274.63	-1644.13	 1632.96
     75.7330	 2314.00	 2266.64	-1616.14	 1631.34
     75.7590	 2244.00	 2258.95	-1678.45	 1629.72
     75.7850	 2204.00	 2251.61	-1711.11	 1628.11
     75.8110	 2284.00	 2244.64	-1624.14	 1626.49
     75.8370	 2283.00	 2238.06	-1618.56	 1624.87
     75.8630	 2347.00	 2231.85	-1548.35	 1623.25
     75.8890	 2249.00	 2225.99	-1640.49	 1621.64
     75.9150	 2168.00	 2220.47	-1715.97	 1620.02
     75.9410	 2191.00	 2215.26	-1687.76	 1618.40
     75.9670	 2175.00	 2210.33	-1698.83	 1616.78
     75.9930	 2274.00	 2205.67	-1595.17	 1615.17
     76.0190	 2266.00	 2201.25	-1598.75	 1613.55
     76.0450	 2262.00	 2197.04	-1598.54	 1611.93
     76.0710	 2182.00	 2193.03	-1674.53	 1610.31
     76.0970	 2197.00	 2189.20	-1655.70	 1608.70
     76.1230	 2219.00	 2185.54	-1630.04	 1607.08
     76.1490	 2253.00	 2182.02	-1592.52	 1605.46
     76.1750	 2138.00	 2178.64	-1704.14	 1603.84
     76.2010	 2172.00	 2175.39	-1666.89	 1602.23
     76.2270	 2173.00	 2172.25	-1662.75	 1600.61
     76.2530	 2174.00	 2169.21	-1658.71	 1598.99
     76.2790	 2106.00	 2166.27	-1723.77	 1597.37
     76.3050	 2186.00	 2163.42	-1640.92	 1595.76
     76.3310	 2226.00	 2160.66	-1598.16	 1594.14
     76.3570	 2230.00	 2157.97	-1591.47	 1592.52
     76.3830	 2136.00	 2155.35	-1682.85	 1590.90
     76.4090	 2185.00	 2152.81	-1631.31	 1589.29
     76.4350	 2177.00	 2150.32	-1636.82	 1587.67
     76.4610	 2153.00	 2147.90	-1658.40	 1586.05
     76.4870	 2158.00	 2145.53	-1651.03	 1584.43
     76.5130	 2141.00	 2143.22	-1665.72	 1582.82
     76.5390	 2159.00	 2140.96	-1645.46	 1581.20
     76.5650	 2127.00	 2138.75	-1675.25	 1579.58
     76.5910	 2178.00	 2136.59	-1622.09	 1577.96
     76.6170	 2176.00	 2134.47	-1621.97	 1576.35
     76.6430	 2149.00	 2132.39	-1646.89	 1574.73
     76.6690	 2148.00	 2130.33	-1645.83	 1573.08
     76.6950	 2187.00	 2128.20	-1604.70	 1571.33
     76.7210	 2152.00	 2126.10	-1637.60	 1569.57
     76.7470	 2125.00	 2124.05	-1662.55	 1567.82
     76.7730	 2136.00	 2122.03	-1649.53	 1566.06
     76.7990	 2125.00	 2120.04	-1658.54	 1564.31
     76.8250	 2147.00	 2118.10	-1634.60	 1562.55
     76.8510	 2161.00	 2116.18	-1618.68	 1560.80
     76.8770	 2192.00	 2114.30	-1585.80	 1559.04
     76.9030	 2180.00	 2112.45	-1595.95	 1557.29
     76.9290	 2139.00	 2110.63	-1635.13	 1555.53
     76.9550	 2151.00	 2108.85	-1621.35	 1553.78
     76.9810	 2090.00	 2107.09	-1680.59	 1552.02
     77.0070	 2009.00	 2105.37	-1759.87	 1550.27
     77.0330	 2075.00	 2103.68	-1692.18	 1548.51
     77.0590	 2140.00	 2102.01	-1625.51	 1546.76
     77.0850	 2170.00	 2100.38	-1593.88	 1545.00
     77.1110	 2138.00	 2098.78	-1624.28	 1543.25
     77.1370	 2119.00	 2097.21	-1641.71	 1541.49
     77.1630	 2118.00	 2095.66	-1641.16	 1539.73
     77.1890	 2047.00	 2094.15	-1710.65	 1537.98
     77.2150	 2058.00	 2092.66	-1698.16	 1536.22
     77.2410	 2057.00	 2091.21	-1697.71	 1534.47
     77.2670	 2074.00	 2089.78	-1679.28	 1532.71
     77.2930	 2102.00	 2088.39	-1649.89	 1530.96
     77.3190	 2109.00	 2087.02	-1641.52	 1529.20
     77.3450	 2146.00	 2085.69	-1603.19	 1527.45
     77.3710	 2132.00	 2084.38	-1615.88	 1525.69
     77.3970	 2129.00	 2083.10	-1617.60	 1523.94
     77.4230	 2159.00	 2081.86	-1586.36	 1522.18
     77.4490	 2158.00	 2080.65	-1586.15	 1520.43
     77.4750	 2133.00	 2079.47	-1609.97	 1518.67
     77.5010	 2109.00	 2078.32	-1632.82	 1516.92
     77.5270	 2082.00	 2077.20	-1658.70	 1515.16
     77.5530	 2086.00	 2076.11	-1653.61	 1513.41
     77.5790	 2089.00	 2075.06	-1649.56	 1511.65
     77.6050	 2068.00	 2074.04	-1669.54	 1509.90
     77.6310	 2017.00	 2073.06	-1719.56	 1508.14
     77.6570	 2107.00	 2072.10	-1628.60	 1506.39
     77.6830	 2091.00	 2071.19	-1643.69	 1504.63
     77.7090	 2022.00	 2070.30	-1711.80	 1502.88
     77.7350	 2120.00	 2069.46	-1612.96	 1501.12
     77.7610	 2083.00	 2068.65	-1649.15	 1499.37
     77.7870	 2059.00	 2067.87	-1672.37	 1497.61
     77.8130	 2115.00	 2067.13	-1615.63	 1495.86
     77.8390	 2065.00	 2066.43	-1664.93	 1494.10
     77.8650	 2088.00	 2065.76	-1641.26	 1492.35
     77.8910	 2048.00	 2065.13	-1680.63	 1490.59
     77.9170	 2044.00	 2064.54	-1684.04	 1488.83
     77.9430	 2019.00	 2063.99	-1708.49	 1487.08
     77.9690	 2090.00	 2063.47	-1636.97	 1485.32
     77.9950	 2123.00	 2063.00	-1603.50	 1483.57
     78.0210	 2129.00	 2062.56	-1597.06	 1481.81
     78.0470	 2053.00	 2062.15	-1672.65	 1480.06
     78.0730	 2065.00	 2063.08	-1661.58	 1479.59
     78.0990	 2030.00	 2064.63	-1698.13	 1479.71
     78.1250	 2046.00	 2066.22	-1683.72	 1479.83
     78.1510	 2101.00	 2067.84	-1630.34	 1479.96
     78.1770	 2029.00	 2069.50	-1704.00	 1480.08
     78.2030	 2010.00	 2071.20	-1724.70	 1480.20
     78.2290	 2100.00	 2072.93	-1636.43	 1480.32
     78.2550	 1993.00	 2074.69	-1745.19	 1480.44
     78.2810	 2013.00	 2076.49	-1726.99	 1480.56
     78.3070	 2016.00	 2078.32	-1725.82	 1480.68
     78.3330	 2053.00	 2080.18	-1690.68	 1480.80
     78.3590	 2141.00	 2082.06	-1604.56	 1480.92
     78.3850	 2058.00	 2083.98	-1689.48	 1481.04
     78.4110	 2099.00	 2085.92	-1650.42	 1481.16
     78.4370	 2055.00	 2087.88	-1696.38	 1481.28
     78.4630	 2077.00	 2089.87	-1676.37	 1481.40
     78.4890	 2034.00	 2091.87	-1721.37	 1481.52
     78.5150	 2067.00	 2093.89	-1690.39	 1481.64
     78.5410	 2088.00	 2095.93	-1671.43	 1481.76
     78.5670	 2081.00	 2097.98	-1680.48	 1481.88
     78.5930	 2168.00	 2100.04	-1595.54	 1482.00
     78.6190	 2041.00	 2102.11	-1724.61	 1482.12
     78.6450	 2027.00	 2104.18	-1740.68	 1482.24
     78.6710	 2074.00	 2106.27	-1695.77	 1482.36
     78.6970	 2130.00	 2108.35	-1641.85	 1482.48
     78.7230	 2120.00	 2110.44	-1653.94	 1482.60
     78.7490	 2078.00	 2112.53	-1698.03	 1482.72
     78.7750	 2052.00	 2114.62	-1726.12	 1482.84
     78.8010	 2081.00	 2116.72	-1699.22	 1482.96
     78.8270	 2082.00	 2118.83	-1700.33	 1483.08
     78.8530	 2118.00	 2120.94	-1666.44	 1483.20
     78.8790	 2105.00	 2122.97	-1681.47	 1483.22
     78.9050	 2103.00	 2124.99	-1685.49	 1483.22
     78.9310	 2120.00	 2127.03	-1670.53	 1483.22
     78.9570	 2180.00	 2129.10	-1612.60	 1483.22
     78.9830	 2100.00	 2131.20	-1694.70	 1483.22
     79.0090	 2125.00	 2133.34	-1671.84	 1483.22
     79.0350	 2115.00	 2135.51	-1684.01	 1483.22
     79.0610	 2154.00	 2137.71	-1647.21	 1483.22
     79.0870	 2108.00	 2139.93	-1695.43	 1483.22
     79.1130	 2082.00	 2142.16	-1723.66	 1483.22
     79.1390	 2102.00	 2144.36	-1705.86	 1483.22
     79.1650	 2165.00	 2146.48	-1644.98	 1483.22
     79.1910	 2177.00	 2148.48	-1634.98	 1483.22
     79.2170	 2163.00	 2150.27	-1650.77	 1483.22
     79.2430	 2147.00	 2151.77	-1668.27	 1483.22
     79.2690	 2120.00	 2152.91	-1696.41	 1483.22
     79.2950	 2121.00	 2153.60	-1696.10	 1483.22
     79.3210	 2161.00	 2153.80	-1656.30	 1483.22
     79.3470	 2134.00	 2153.48	-1682.98	 1483.22
     79.3730	 2099.00	 2152.67	-1717.17	 1483.22
     79.3990	 2147.00	 2151.39	-1667.89	 1483.22
     79.4250	 2160.00	 2149.70	-1653.20	 1483.22
     79.4510	 2201.00	 2147.65	-1610.15	 1483.22
     79.4770	 2225.00	 2145.29	-1583.79	 1483.22
     79.5030	 2157.00	 2142.23	-1648.73	 1483.22
     79.5290	 2062.00	 2139.35	-1740.85	 1483.22
     79.5550	 2115.00	 2136.26	-1684.76	 1483.22
     79.5810	 2143.00	 2132.97	-1653.47	 1483.22
     79.6070	 2154.00	 2129.52	-1639.02	 1483.22
     79.6330	 2195.00	 2125.94	-1594.44	 1483.22
     79.6590	 2178.00	 2122.29	-1607.79	 1483.22
     79.6850	 2217.00	 2118.61	-1565.11	 1483.22
     79.7110	 2207.00	 2114.72	-1571.22	 1483.22
     79.7370	 2113.00	 2111.09	-1661.59	 1483.22
     79.7630	 2106.00	 2107.54	-1665.04	 1483.22
     79.7890	 2107.00	 2104.08	-1660.58	 1483.22
     79.8150	 2100.00	 2100.73	-1664.23	 1483.22
     79.8410	 2136.00	 2097.50	-1625.00	 1483.22
     79.8670	 2163.00	 2094.38	-1594.88	 1483.22
     18.3127	        	        	        	        	       0	(  1  1  1)	  0  1
     18.3591	        	        	        	        	       0	(  1  1  1)	  0  2
     30.1232	        	        	        	        	       0	(  2  2  0)	  0  1
     30.2006	        	        	        	        	       0	(  2  2  0)	  0  2
     35.4814	        	        	        	        	       0	(  3  1  1)	  0  1
     35.5734	        	        	        	        	       0	(  3  1  1)	  0  2
     37.1153	        	        	        	        	       0	(  2  2  2)	  0  1
     37.2119	        	        	        	        	       0	(  2  2  2)	  0  2
     37.2181	        	        	        	        	    -415	(  1  1  1)	  0  1
     37.3149	        	        	        	        	    -415	(  1  1  1)	  0  2
     43.1223	        	        	        	        	       0	(  4  0  0)	  0  1
     43.2359	        	        	        	        	       0	(  4  0  0)	  0  2
     43.2432	        	        	        	        	    -415	(  2  0  0)	  0  1
     43.3572	        	        	        	        	    -415	(  2  0  0)	  0  2
     47.2148	        	        	        	        	       0	(  3  3  1)	  0  1
     47.3405	        	        	        	        	       0	(  3  3  1)	  0  2
     53.4984	        	        	        	        	       0	(  4  2  2)	  0  1
     53.6434	        	        	        	        	       0	(  4  2  2)	  0  2
     57.0300	        	        	        	        	       0	(  5  1  1)	  0  1
     57.0300	        	        	        	        	       0	(  3  3  3)	  0  1
     57.1863	        	        	        	        	       0	(  5  1  1)	  0  2
     57.1862	        	        	        	        	       0	(  3  3  3)	  0  2
     62.6262	        	        	        	        	       0	(  4  4  0)	  0  1
     62.8013	        	        	        	        	       0	(  4  4  0)	  0  2
     62.8125	        	        	        	        	    -415	(  2  2  0)	  0  1
     62.9881	        	        	        	        	    -415	(  2  2  0)	  0  2
     65.8486	        	        	        	        	       0	(  5  3  1)	  0  1
     66.0349	        	        	        	        	       0	(  5  3  1)	  0  2
     66.9044	        	        	        	        	       0	(  4  4  2)	  0  1
     67.0944	        	        	        	        	       0	(  4  4  2)	  0  2
     71.0501	        	        	        	        	       0	(  6  2  0)	  0  1
     71.2555	        	        	        	        	       0	(  6  2  0)	  0  2
     74.0918	        	        	        	        	       0	(  5  3  3)	  0  1
     74.3090	        	        	        	        	       0	(  5  3  3)	  0  2
     75.0951	        	        	        	        	       0	(  6  2  2)	  0  1
     75.3163	        	        	        	        	       0	(  6  2  2)	  0  2
     75.3305	        	        	        	        	    -415	(  3  1  1)	  0  1
     75.5526	        	        	        	        	    -415	(  3  1  1)	  0  2
     79.0653	        	        	        	        	       0	(  4  4  4)	  0  1
     79.3029	        	        	        	        	       0	(  4  4  4)	  0  2
     79.3181	        	        	        	        	    -415	(  2  2  2)	  0  1
     79.5567	        	        	        	        	    -415	(  2  2  2)	  0  2
