 PMK18    CELL:    8.37284   8.37284   8.37284   90.0000   90.0000   90.0000   SPGR: F d -3 m               TEMP:      0.00
  1   2461     1.54056     1.54443     0.00000     0.00000     0.00000    0
    30     0     0
 2Theta	Yobs	Ycal	Yobs-Ycal	Backg	Posr	(hkl)	K
     15.0210	 5151.00	 5045.82	-2051.04	 4324.60
     15.0470	 5178.00	 5048.22	-2026.45	 4326.68
     15.0730	 5157.00	 5050.63	-2049.85	 4328.77
     15.0990	 5162.00	 5053.04	-2047.27	 4330.86
     15.1250	 5045.00	 5055.46	-2166.69	 4332.95
     15.1510	 5167.00	 5057.89	-2047.12	 4335.04
     15.1770	 5203.00	 5060.32	-2013.55	 4337.13
     15.2030	 5125.00	 5062.77	-2093.99	 4339.21
     15.2290	 5160.00	 5065.21	-2061.44	 4341.30
     15.2550	 5166.00	 5067.67	-2057.90	 4343.39
     15.2810	 5236.00	 5070.13	-1990.36	 4345.48
     15.3070	 5251.00	 5072.60	-1977.83	 4347.57
     15.3330	 5161.00	 5075.08	-2070.31	 4349.66
     15.3590	 5151.00	 5077.57	-2082.80	 4351.74
     15.3850	 5083.00	 5080.07	-2153.29	 4353.83
     15.4110	 5179.00	 5082.57	-2059.80	 4355.92
     15.4370	 5238.00	 5085.08	-2003.31	 4358.01
     15.4630	 5142.00	 5087.61	-2101.83	 4360.10
     15.4890	 5221.00	 5090.14	-2025.37	 4362.19
     15.5150	 5338.00	 5092.68	-1910.91	 4364.27
     15.5410	 5163.00	 5095.24	-2088.46	 4366.36
     15.5670	 5325.00	 5097.80	-1929.03	 4368.45
     15.5930	 5061.00	 5100.38	-2195.60	 4370.54
     15.6190	 5218.00	 5102.96	-2041.19	 4372.63
     15.6450	 5190.00	 5105.56	-2071.78	 4374.72
     15.6710	 5169.00	 5108.17	-2095.39	 4376.80
     15.6970	 5148.00	 5110.79	-2119.01	 4378.89
     15.7230	 5155.00	 5113.42	-2114.65	 4380.98
     15.7490	 5133.00	 5116.07	-2139.30	 4383.07
     15.7750	 5199.00	 5118.73	-2075.96	 4385.16
     15.8010	 5197.00	 5121.41	-2080.63	 4387.25
     15.8270	 5103.00	 5124.09	-2177.32	 4389.33
     15.8530	 5168.00	 5126.80	-2115.02	 4391.42
     15.8790	 5190.00	 5129.52	-2095.74	 4393.51
     15.9050	 5321.00	 5132.25	-1967.48	 4395.60
     15.9310	 5172.00	 5135.40	-2119.63	 4397.69
     15.9570	 5091.00	 5138.17	-2203.40	 4399.78
     15.9830	 5284.00	 5140.96	-2013.19	 4401.86
     16.0090	 5166.00	 5143.77	-2133.99	 4403.95
     16.0350	 5230.00	 5146.59	-2072.82	 4406.04
     16.0610	 5325.00	 5149.63	-1980.86	 4408.13
     16.0870	 5221.00	 5153.82	-2089.05	 4411.54
     16.1130	 5216.00	 5159.51	-2099.73	 4416.43
     16.1390	 5249.00	 5165.21	-2072.44	 4421.31
     16.1650	 5274.00	 5170.94	-2053.17	 4426.20
     16.1910	 5142.00	 5176.69	-2190.92	 4431.09
     16.2170	 5173.00	 5182.47	-2165.69	 4435.97
     16.2430	 5281.00	 5188.27	-2063.49	 4440.86
     16.2690	 5189.00	 5194.09	-2161.32	 4445.75
     16.2950	 5160.00	 5199.95	-2196.17	 4450.63
     16.3210	 5274.00	 5205.83	-2088.05	 4455.52
     16.3470	 5224.00	 5211.74	-2143.96	 4460.41
     16.3730	 5254.00	 5217.68	-2119.91	 4465.29
     16.3990	 5314.00	 5223.65	-2065.88	 4470.18
     16.4250	 5190.00	 5229.65	-2195.88	 4475.07
     16.4510	 5313.00	 5235.69	-2078.92	 4479.95
     16.4770	 5341.00	 5241.76	-2056.99	 4484.84
     16.5030	 5305.00	 5247.87	-2099.10	 4489.73
     16.5290	 5394.00	 5254.02	-2016.24	 4494.61
     16.5550	 5384.00	 5260.20	-2032.42	 4499.50
     16.5810	 5241.00	 5266.42	-2181.65	 4504.39
     16.6070	 5205.00	 5272.69	-2223.91	 4509.27
     16.6330	 5148.00	 5279.00	-2287.22	 4514.16
     16.6590	 5208.00	 5285.35	-2233.58	 4519.05
     16.6850	 5366.00	 5291.75	-2081.98	 4523.93
     16.7110	 5354.00	 5298.20	-2100.43	 4528.82
     16.7370	 5334.00	 5304.70	-2126.92	 4533.71
     16.7630	 5393.00	 5311.25	-2074.48	 4538.59
     16.7890	 5344.00	 5317.86	-2130.08	 4543.48
     16.8150	 5322.00	 5324.52	-2158.74	 4548.37
     16.8410	 5415.00	 5331.24	-2072.46	 4553.25
     16.8670	 5426.00	 5338.02	-2068.24	 4558.14
     16.8930	 5433.00	 5344.86	-2068.09	 4563.02
     16.9190	 5411.00	 5353.39	-2098.62	 4569.54
     16.9450	 5290.00	 5365.05	-2231.28	 4579.11
     16.9710	 5356.00	 5376.79	-2177.01	 4588.69
     16.9970	 5527.00	 5388.59	-2017.82	 4598.26
     17.0230	 5487.00	 5400.47	-2069.70	 4607.84
     17.0490	 5428.00	 5412.43	-2140.66	 4617.41
     17.0750	 5432.00	 5424.47	-2148.69	 4626.99
     17.1010	 5367.00	 5436.59	-2225.81	 4636.57
     17.1270	 5485.00	 5448.79	-2120.02	 4646.14
     17.1530	 5541.00	 5461.08	-2076.31	 4655.72
     17.1790	 5520.00	 5473.46	-2109.69	 4665.29
     17.2050	 5622.00	 5485.93	-2020.16	 4674.87
     17.2310	 5520.00	 5498.50	-2134.73	 4684.45
     17.2570	 5556.00	 5511.16	-2111.39	 4694.02
     17.2830	 5526.00	 5523.93	-2154.15	 4703.60
     17.3090	 5539.00	 5536.79	-2154.02	 4713.17
     17.3350	 5569.00	 5549.76	-2136.99	 4722.75
     17.3610	 5587.00	 5562.83	-2132.06	 4732.33
     17.3870	 5583.00	 5576.01	-2149.24	 4741.90
     17.4130	 5547.00	 5589.30	-2198.52	 4751.48
     17.4390	 5569.00	 5602.69	-2189.92	 4761.05
     17.4650	 5554.00	 5616.20	-2218.42	 4770.63
     17.4910	 5556.00	 5629.81	-2230.03	 4780.21
     17.5170	 5621.00	 5643.52	-2178.75	 4789.78
     17.5430	 5667.00	 5657.35	-2146.57	 4799.36
     17.5690	 5550.00	 5671.27	-2277.49	 4808.93
     17.5950	 5689.00	 5685.29	-2152.52	 4818.51
     17.6210	 5794.00	 5699.41	-2061.64	 4828.09
     17.6470	 5628.00	 5713.62	-2241.85	 4837.66
     17.6730	 5633.00	 5727.92	-2251.14	 4847.24
     17.6990	 5639.00	 5742.28	-2259.51	 4856.81
     17.7250	 5714.00	 5756.72	-2198.94	 4866.39
     17.7510	 5632.00	 5771.21	-2295.43	 4875.97
     17.7770	 5606.00	 5785.74	-2335.97	 4885.54
     17.8030	 5767.00	 5798.60	-2187.83	 4893.42
     17.8290	 5796.00	 5809.78	-2170.01	 4899.60
     17.8550	 5813.00	 5820.96	-2164.19	 4905.78
     17.8810	 5772.00	 5832.11	-2216.34	 4911.96
     17.9070	 5676.00	 5843.22	-2323.45	 4918.14
     17.9330	 5737.00	 5854.27	-2273.49	 4924.32
     17.9590	 5729.00	 5865.22	-2292.45	 4930.50
     17.9850	 5749.00	 5876.06	-2283.29	 4936.67
     18.0110	 5644.00	 5886.76	-2398.98	 4942.85
     18.0370	 5800.00	 5897.28	-2253.51	 4949.03
     18.0630	 5694.00	 5907.61	-2369.84	 4955.21
     18.0890	 5740.00	 5917.72	-2333.94	 4961.39
     18.1150	 5792.00	 5927.56	-2291.79	 4967.57
     18.1410	 5786.00	 5937.13	-2307.36	 4973.75
     18.1670	 5734.00	 5946.39	-2368.61	 4979.93
     18.1930	 5741.00	 5955.31	-2370.54	 4986.11
     18.2190	 5916.00	 5963.88	-2204.10	 4992.29
     18.2450	 5814.00	 5972.06	-2314.29	 4998.47
     18.2710	 5707.00	 5979.86	-2429.08	 5004.65
     18.2970	 5751.00	 5987.24	-2392.46	 5010.83
     18.3230	 5750.00	 5994.20	-2400.43	 5017.01
     18.3490	 5808.00	 6000.73	-2348.96	 5023.19
     18.3750	 5972.00	 6006.84	-2191.06	 5029.36
     18.4010	 5849.00	 6012.52	-2319.74	 5035.54
     18.4270	 5953.00	 6017.77	-2220.99	 5041.72
     18.4530	 5919.00	 6022.61	-2259.83	 5047.90
     18.4790	 5797.00	 6027.05	-2386.27	 5054.08
     18.5050	 5915.00	 6031.10	-2272.33	 5060.26
     18.5310	 5993.00	 6034.79	-2198.02	 5066.44
     18.5570	 5938.00	 6038.14	-2256.37	 5072.62
     18.5830	 5869.00	 6041.17	-2328.40	 5078.80
     18.6090	 5955.00	 6043.92	-2245.14	 5084.98
     18.6350	 5962.00	 6046.39	-2240.62	 5091.16
     18.6610	 5943.00	 6048.64	-2261.86	 5097.34
     18.6870	 5824.00	 6050.67	-2382.90	 5103.52
     18.7130	 5946.00	 6052.53	-2262.76	 5109.70
     18.7390	 5878.00	 6054.24	-2332.46	 5115.88
     18.7650	 5829.00	 6055.82	-2383.05	 5122.06
     18.7910	 5858.00	 6057.31	-2355.53	 5128.23
     18.8170	 5929.00	 6058.72	-2285.95	 5134.41
     18.8430	 5932.00	 6060.08	-2284.31	 5140.59
     18.8690	 5949.00	 6061.42	-2268.64	 5146.77
     18.8950	 6018.00	 6062.74	-2200.97	 5152.95
     18.9210	 6197.00	 6064.07	-2023.30	 5159.13
     18.9470	 6108.00	 6065.43	-2113.66	 5165.31
     18.9730	 6088.00	 6066.83	-2135.05	 5171.49
     18.9990	 6074.00	 6068.27	-2150.50	 5177.67
     19.0250	 6038.00	 6069.79	-2188.01	 5183.85
     19.0510	 6025.00	 6071.37	-2202.60	 5190.03
     19.0770	 6076.00	 6073.04	-2153.26	 5196.21
     19.1030	 6029.00	 6074.79	-2202.01	 5202.39
     19.1290	 6021.00	 6076.64	-2211.86	 5208.57
     19.1550	 5972.00	 6075.24	-2259.46	 5211.40
     19.1810	 5988.00	 6073.43	-2241.66	 5213.73
     19.2070	 5882.00	 6071.74	-2345.96	 5216.06
     19.2330	 5923.00	 6070.15	-2303.37	 5218.39
     19.2590	 5979.00	 6068.66	-2245.89	 5220.72
     19.2850	 6037.00	 6067.29	-2186.52	 5223.05
     19.3110	 6020.00	 6066.02	-2202.25	 5225.38
     19.3370	 5936.00	 6064.87	-2285.09	 5227.71
     19.3630	 6015.00	 6063.81	-2205.04	 5230.04
     19.3890	 6004.00	 6062.87	-2215.09	 5232.38
     19.4150	 6006.00	 6062.03	-2212.25	 5234.71
     19.4410	 6058.00	 6061.29	-2159.51	 5237.04
     19.4670	 6132.00	 6060.65	-2084.87	 5239.37
     19.4930	 6151.00	 6060.11	-2065.33	 5241.70
     19.5190	 6076.00	 6059.66	-2139.89	 5244.03
     19.5450	 6183.00	 6059.31	-2032.53	 5246.36
     19.5710	 6228.00	 6059.04	-1987.27	 5248.69
     19.5970	 6175.00	 6058.87	-2040.10	 5251.02
     19.6230	 6162.00	 6058.78	-2053.01	 5253.35
     19.6490	 6116.00	 6058.78	-2099.00	 5255.68
     19.6750	 6062.00	 6058.85	-2153.08	 5258.01
     19.7010	 5978.00	 6059.01	-2237.24	 5260.34
     19.7270	 6050.00	 6059.24	-2165.46	 5262.67
     19.7530	 6123.00	 6059.54	-2092.77	 5265.00
     19.7790	 6093.00	 6059.91	-2123.14	 5267.33
     19.8050	 6127.00	 6060.36	-2089.58	 5269.66
     19.8310	 6095.00	 6060.86	-2122.09	 5271.99
     19.8570	 6008.00	 6061.43	-2209.66	 5274.33
     19.8830	 6024.00	 6062.07	-2194.29	 5276.66
     19.9090	 6023.00	 6062.76	-2195.98	 5278.99
     19.9350	 6059.00	 6063.51	-2160.73	 5281.32
     19.9610	 6011.00	 6064.31	-2209.54	 5283.65
     19.9870	 6018.00	 6065.17	-2203.39	 5285.98
     20.0130	 6072.00	 6066.08	-2150.30	 5288.31
     20.0390	 5982.00	 6067.03	-2241.26	 5290.64
     20.0650	 6007.00	 6068.04	-2217.27	 5292.97
     20.0910	 6087.00	 6069.09	-2138.32	 5295.30
     20.1170	 6121.00	 6070.19	-2105.41	 5297.63
     20.1430	 6008.00	 6071.32	-2219.55	 5299.96
     20.1690	 6029.00	 6072.50	-2199.73	 5302.29
     20.1950	 6033.00	 6073.72	-2196.95	 5304.62
     20.2210	 6087.00	 6074.98	-2144.20	 5306.95
     20.2470	 6016.00	 6076.27	-2216.50	 5309.28
     20.2730	 6115.00	 6077.60	-2118.83	 5311.61
     20.2990	 6048.00	 6078.97	-2187.19	 5313.94
     20.3250	 6012.00	 6080.36	-2224.59	 5316.27
     20.3510	 6149.00	 6081.79	-2089.02	 5318.61
     20.3770	 6108.00	 6083.88	-2132.11	 5320.94
     20.4030	 6179.00	 6085.37	-2062.60	 5323.27
     20.4290	 6028.00	 6086.89	-2215.12	 5325.60
     20.4550	 5981.00	 6088.44	-2263.66	 5327.93
     20.4810	 6130.00	 6090.01	-2116.24	 5330.26
     20.5070	 6107.00	 6091.61	-2140.84	 5332.59
     20.5330	 6092.00	 6093.55	-2157.78	 5334.92
     20.5590	 5996.00	 6095.20	-2255.42	 5337.25
     20.5850	 6097.00	 6096.87	-2156.10	 5339.58
     20.6110	 5978.00	 6098.56	-2276.79	 5341.91
     20.6370	 6041.00	 6100.28	-2215.51	 5344.24
     20.6630	 6090.00	 6102.02	-2168.24	 5346.57
     20.6890	 6058.00	 6103.77	-2202.00	 5348.90
     20.7150	 6083.00	 6105.55	-2178.78	 5351.23
     20.7410	 6240.00	 6107.35	-2023.57	 5353.56
     20.7670	 6146.00	 6109.16	-2119.39	 5355.89
     20.7930	 6108.00	 6110.99	-2159.22	 5358.23
     20.8190	 6338.00	 6112.84	-1931.07	 5360.56
     20.8450	 6230.00	 6114.71	-2040.94	 5362.89
     20.8710	 6139.00	 6116.59	-2133.82	 5365.22
     20.8970	 6168.00	 6118.49	-2106.72	 5367.55
     20.9230	 6191.00	 6120.40	-2085.63	 5369.88
     20.9490	 6280.00	 6122.33	-1998.56	 5372.21
     20.9750	 6325.00	 6124.28	-1955.50	 5374.54
     21.0010	 6108.00	 6126.40	-2174.63	 5377.04
     21.0270	 6336.00	 6129.41	-1949.63	 5380.40
     21.0530	 6162.00	 6132.43	-2126.65	 5383.77
     21.0790	 6144.00	 6135.46	-2147.68	 5387.14
     21.1050	 6230.00	 6138.50	-2064.73	 5390.50
     21.1310	 6304.00	 6141.56	-1993.79	 5393.87
     21.1570	 6098.00	 6144.63	-2202.85	 5397.24
     21.1830	 6159.00	 6147.71	-2144.93	 5400.60
     21.2090	 6189.00	 6150.80	-2118.02	 5403.97
     21.2350	 6262.00	 6153.90	-2048.13	 5407.33
     21.2610	 6321.00	 6157.01	-1992.24	 5410.70
     21.2870	 6292.00	 6160.13	-2024.36	 5414.07
     21.3130	 6280.00	 6163.27	-2039.49	 5417.43
     21.3390	 6291.00	 6166.41	-2031.64	 5420.80
     21.3650	 6342.00	 6169.56	-1983.79	 5424.17
     21.3910	 6323.00	 6172.72	-2005.95	 5427.53
     21.4170	 6179.00	 6175.89	-2153.12	 5430.90
     21.4430	 6202.00	 6179.07	-2133.29	 5434.27
     21.4690	 6310.00	 6182.26	-2028.48	 5437.63
     21.4950	 6274.00	 6185.45	-2067.68	 5441.00
     21.5210	 6266.00	 6188.65	-2078.88	 5444.36
     21.5470	 6342.00	 6191.87	-2006.09	 5447.73
     21.5730	 6310.00	 6195.08	-2041.31	 5451.10
     21.5990	 6341.00	 6198.31	-2013.54	 5454.46
     21.6250	 6298.00	 6201.55	-2059.77	 5457.83
     21.6510	 6270.00	 6204.79	-2091.01	 5461.20
     21.6770	 6404.00	 6208.04	-1960.26	 5464.56
     21.7030	 6420.00	 6211.29	-1947.52	 5467.93
     21.7290	 6368.00	 6214.55	-2002.78	 5471.29
     21.7550	 6333.00	 6217.82	-2041.05	 5474.66
     21.7810	 6389.00	 6221.10	-1988.32	 5478.03
     21.8070	 6396.00	 6224.38	-1984.61	 5481.39
     21.8330	 6401.00	 6227.67	-1982.90	 5484.76
     21.8590	 6336.00	 6230.96	-2051.19	 5488.13
     21.8850	 6274.00	 6234.26	-2116.49	 5491.49
     21.9110	 6295.00	 6237.57	-2098.80	 5494.86
     21.9370	 6305.00	 6240.88	-2092.11	 5498.23
     21.9630	 6294.00	 6244.20	-2106.43	 5501.59
     21.9890	 6268.00	 6247.52	-2135.75	 5504.96
     22.0150	 6279.00	 6250.85	-2128.08	 5508.33
     22.0410	 6362.00	 6254.19	-2048.41	 5511.69
     22.0670	 6443.00	 6257.53	-1970.75	 5515.06
     22.0930	 6359.00	 6260.87	-2058.10	 5518.42
     22.1190	 6303.00	 6264.22	-2117.45	 5521.79
     22.1450	 6437.00	 6267.58	-1986.80	 5525.16
     22.1710	 6470.00	 6270.94	-1957.17	 5528.52
     22.1970	 6375.00	 6274.30	-2055.53	 5531.89
     22.2230	 6342.00	 6277.67	-2091.90	 5535.26
     22.2490	 6428.00	 6281.05	-2009.28	 5538.62
     22.2750	 6483.00	 6284.43	-1957.66	 5541.99
     22.3010	 6411.00	 6287.81	-2033.04	 5545.35
     22.3270	 6351.00	 6291.20	-2096.43	 5548.72
     22.3530	 6320.00	 6294.60	-2130.82	 5552.09
     22.3790	 6363.00	 6297.99	-2091.22	 5555.45
     22.4050	 6455.00	 6301.40	-2002.62	 5558.82
     22.4310	 6506.00	 6304.80	-1955.03	 5562.19
     22.4570	 6424.00	 6308.21	-2040.44	 5565.55
     22.4830	 6434.00	 6311.63	-2033.86	 5568.92
     22.5090	 6411.00	 6315.05	-2060.28	 5572.29
     22.5350	 6349.00	 6318.47	-2125.70	 5575.65
     22.5610	 6396.00	 6321.90	-2082.13	 5579.02
     22.5870	 6439.00	 6325.33	-2042.56	 5582.38
     22.6130	 6408.00	 6328.77	-2077.00	 5585.75
     22.6390	 6360.00	 6332.21	-2128.44	 5589.12
     22.6650	 6330.00	 6335.66	-2161.88	 5592.48
     22.6910	 6504.00	 6339.10	-1991.33	 5595.85
     22.7170	 6495.00	 6342.56	-2003.78	 5599.22
     22.7430	 6423.00	 6346.01	-2079.24	 5602.58
     22.7690	 6447.00	 6347.74	-2056.96	 5604.21
     22.7950	 6358.00	 6347.47	-2145.70	 5603.85
     22.8210	 6436.00	 6347.21	-2067.44	 5603.49
     22.8470	 6384.00	 6346.96	-2119.18	 5603.13
     22.8730	 6380.00	 6346.71	-2122.93	 5602.77
     22.8990	 6441.00	 6346.46	-2061.68	 5602.41
     22.9250	 6371.00	 6346.21	-2131.44	 5602.04
     22.9510	 6255.00	 6345.97	-2247.20	 5601.68
     22.9770	 6428.00	 6345.73	-2073.96	 5601.32
     23.0030	 6505.00	 6345.50	-1996.73	 5600.96
     23.0290	 6411.00	 6345.27	-2090.50	 5600.60
     23.0550	 6407.00	 6345.04	-2094.27	 5600.23
     23.0810	 6493.00	 6344.82	-2008.05	 5599.87
     23.1070	 6358.00	 6344.60	-2142.83	 5599.51
     23.1330	 6324.00	 6344.39	-2176.61	 5599.15
     23.1590	 6566.00	 6344.18	-1934.40	 5598.79
     23.1850	 6415.00	 6343.97	-2085.19	 5598.43
     23.2110	 6313.00	 6343.76	-2186.99	 5598.06
     23.2370	 6322.00	 6343.56	-2177.79	 5597.70
     23.2630	 6263.00	 6343.37	-2236.59	 5597.34
     23.2890	 6419.00	 6343.17	-2080.40	 5596.98
     23.3150	 6455.00	 6342.98	-2044.21	 5596.62
     23.3410	 6374.00	 6342.80	-2125.02	 5596.25
     23.3670	 6422.00	 6342.62	-2076.84	 5595.89
     23.3930	 6529.00	 6342.44	-1969.66	 5595.53
     23.4190	 6476.00	 6342.26	-2022.49	 5595.17
     23.4450	 6352.00	 6342.09	-2146.32	 5594.81
     23.4710	 6348.00	 6341.92	-2150.15	 5594.45
     23.4970	 6470.00	 6341.76	-2027.99	 5594.08
     23.5230	 6555.00	 6341.60	-1942.83	 5593.72
     23.5490	 6432.00	 6341.45	-2065.67	 5593.36
     23.5750	 6339.00	 6341.29	-2158.52	 5593.00
     23.6010	 6513.00	 6341.15	-1984.37	 5592.64
     23.6270	 6590.00	 6341.00	-1907.23	 5592.28
     23.6530	 6408.00	 6340.86	-2089.09	 5591.91
     23.6790	 6433.00	 6340.72	-2063.95	 5591.55
     23.7050	 6451.00	 6340.59	-2045.82	 5591.19
     23.7310	 6539.00	 6340.46	-1957.69	 5590.83
     23.7570	 6377.00	 6340.33	-2119.56	 5590.47
     23.7830	 6533.00	 6340.21	-1963.44	 5590.10
     23.8090	 6485.00	 6340.10	-2011.32	 5589.74
     23.8350	 6387.00	 6339.98	-2109.21	 5589.38
     23.8610	 6357.00	 6339.87	-2139.10	 5589.02
     23.8870	 6415.00	 6339.77	-2080.99	 5588.66
     23.9130	 6450.00	 6339.66	-2045.89	 5588.30
     23.9390	 6345.00	 6339.57	-2150.79	 5587.93
     23.9650	 6469.00	 6339.47	-2026.70	 5587.57
     23.9910	 6380.00	 6339.38	-2115.61	 5587.21
     24.0170	 6367.00	 6339.30	-2128.53	 5586.85
     24.0430	 6480.00	 6339.22	-2015.44	 5586.49
     24.0690	 6449.00	 6339.14	-2046.37	 5586.12
     24.0950	 6506.00	 6339.07	-1989.29	 5585.76
     24.1210	 6367.00	 6339.00	-2128.23	 5585.40
     24.1470	 6406.00	 6338.94	-2089.16	 5585.04
     24.1730	 6409.00	 6338.88	-2086.10	 5584.68
     24.1990	 6363.00	 6338.82	-2132.05	 5584.32
     24.2250	 6271.00	 6338.77	-2224.00	 5583.95
     24.2510	 6337.00	 6338.72	-2157.95	 5583.59
     24.2770	 6399.00	 6338.68	-2095.91	 5583.23
     24.3030	 6436.00	 6338.65	-2058.87	 5582.87
     24.3290	 6414.00	 6338.61	-2080.84	 5582.51
     24.3550	 6356.00	 6338.59	-2138.81	 5582.15
     24.3810	 6390.00	 6338.56	-2104.79	 5581.78
     24.4070	 6309.00	 6338.54	-2185.77	 5581.42
     24.4330	 6304.00	 6338.53	-2190.76	 5581.06
     24.4590	 6389.00	 6338.52	-2105.75	 5580.70
     24.4850	 6426.00	 6338.52	-2068.74	 5580.34
     24.5110	 6417.00	 6338.52	-2077.75	 5579.97
     24.5370	 6338.00	 6338.53	-2156.75	 5579.61
     24.5630	 6343.00	 6338.54	-2151.76	 5579.25
     24.5890	 6383.00	 6337.97	-2111.19	 5578.30
     24.6150	 6378.00	 6336.75	-2114.98	 5576.70
     24.6410	 6361.00	 6335.55	-2130.77	 5575.11
     24.6670	 6317.00	 6334.34	-2173.57	 5573.51
     24.6930	 6245.00	 6333.15	-2244.37	 5571.91
     24.7190	 6282.00	 6331.96	-2206.18	 5570.32
     24.7450	 6300.00	 6330.77	-2187.00	 5568.72
     24.7710	 6243.00	 6329.59	-2242.82	 5567.12
     24.7970	 6302.00	 6328.42	-2182.64	 5565.53
     24.8230	 6433.00	 6327.25	-2050.48	 5563.93
     24.8490	 6434.00	 6326.09	-2048.31	 5562.33
     24.8750	 6311.00	 6324.93	-2170.16	 5560.74
     24.9010	 6315.00	 6323.78	-2165.01	 5559.14
     24.9270	 6292.00	 6322.64	-2186.86	 5557.54
     24.9530	 6368.00	 6321.50	-2109.73	 5555.95
     24.9790	 6327.00	 6320.37	-2149.59	 5554.35
     25.0050	 6296.00	 6319.24	-2179.47	 5552.75
     25.0310	 6294.00	 6318.12	-2180.35	 5551.16
     25.0570	 6315.00	 6317.01	-2158.24	 5549.56
     25.0830	 6288.00	 6315.91	-2184.13	 5547.97
     25.1090	 6277.00	 6314.81	-2194.04	 5546.37
     25.1350	 6265.00	 6313.72	-2204.95	 5544.77
     25.1610	 6300.00	 6312.64	-2168.86	 5543.18
     25.1870	 6373.00	 6311.56	-2094.78	 5541.58
     25.2130	 6352.00	 6310.49	-2114.72	 5539.98
     25.2390	 6350.00	 6309.43	-2115.65	 5538.39
     25.2650	 6418.00	 6308.37	-2046.60	 5536.79
     25.2910	 6295.00	 6307.33	-2168.55	 5535.19
     25.3170	 6309.00	 6306.29	-2153.51	 5533.60
     25.3430	 6315.00	 6305.25	-2146.48	 5532.00
     25.3690	 6427.00	 6304.23	-2033.46	 5530.40
     25.3950	 6436.00	 6303.22	-2023.44	 5528.81
     25.4210	 6342.00	 6302.21	-2116.44	 5527.21
     25.4470	 6325.00	 6301.21	-2132.44	 5525.61
     25.4730	 6338.00	 6300.22	-2118.45	 5524.02
     25.4990	 6478.00	 6299.24	-1977.47	 5522.42
     25.5250	 6414.00	 6298.27	-2040.50	 5520.82
     25.5510	 6379.00	 6297.31	-2074.53	 5519.23
     25.5770	 6299.00	 6296.35	-2153.58	 5517.63
     25.6030	 6318.00	 6295.41	-2133.64	 5516.03
     25.6290	 6295.00	 6294.48	-2155.70	 5514.44
     25.6550	 6338.00	 6293.55	-2111.78	 5512.84
     25.6810	 6356.00	 6292.64	-2092.86	 5511.24
     25.7070	 6285.00	 6291.73	-2162.96	 5509.65
     25.7330	 6343.00	 6290.84	-2104.06	 5508.05
     25.7590	 6158.00	 6289.95	-2288.18	 5506.45
     25.7850	 6188.00	 6289.08	-2257.31	 5504.86
     25.8110	 6106.00	 6288.22	-2338.44	 5503.26
     25.8370	 6160.00	 6287.37	-2283.59	 5501.67
     25.8630	 6374.00	 6286.53	-2068.75	 5500.07
     25.8890	 6285.00	 6285.70	-2156.92	 5498.47
     25.9150	 6440.00	 6284.88	-2001.11	 5496.88
     25.9410	 6437.00	 6284.08	-2003.30	 5495.28
     25.9670	 6340.00	 6283.29	-2099.51	 5493.68
     25.9930	 6442.00	 6282.65	-1996.88	 5492.23
     26.0190	 6353.00	 6282.14	-2085.37	 5490.89
     26.0450	 6354.00	 6281.64	-2083.87	 5489.55
     26.0710	 6459.00	 6281.16	-1978.39	 5488.21
     26.0970	 6213.00	 6280.69	-2223.92	 5486.87
     26.1230	 6381.00	 6280.24	-2055.46	 5485.53
     26.1490	 6320.00	 6279.80	-2116.02	 5484.19
     26.1750	 6315.00	 6279.37	-2120.60	 5482.85
     26.2010	 6324.00	 6278.96	-2111.18	 5481.51
     26.2270	 6382.00	 6278.56	-2052.79	 5480.17
     26.2530	 6390.00	 6278.18	-2044.41	 5478.83
     26.2790	 6340.00	 6277.81	-2094.04	 5477.50
     26.3050	 6305.00	 6277.47	-2128.69	 5476.16
     26.3310	 6380.00	 6277.13	-2053.36	 5474.82
     26.3570	 6290.00	 6276.82	-2143.04	 5473.48
     26.3830	 6310.00	 6276.52	-2122.74	 5472.14
     26.4090	 6371.00	 6276.24	-2061.46	 5470.80
     26.4350	 6289.00	 6275.98	-2143.20	 5469.46
     26.4610	 6197.00	 6275.73	-2234.96	 5468.12
     26.4870	 6198.00	 6275.51	-2233.73	 5466.78
     26.5130	 6330.00	 6275.30	-2101.53	 5465.44
     26.5390	 6265.00	 6275.12	-2166.34	 5464.10
     26.5650	 6284.00	 6274.95	-2147.18	 5462.76
     26.5910	 6256.00	 6274.81	-2175.03	 5461.42
     26.6170	 6349.00	 6274.71	-2081.93	 5460.08
     26.6430	 6296.00	 6274.60	-2134.83	 5458.74
     26.6690	 6250.00	 6274.53	-2180.75	 5457.41
     26.6950	 6309.00	 6274.47	-2121.70	 5456.07
     26.7210	 6287.00	 6274.44	-2143.66	 5454.73
     26.7470	 6209.00	 6274.44	-2221.67	 5453.39
     26.7730	 6276.00	 6274.46	-2154.68	 5452.05
     26.7990	 6255.00	 6274.50	-2175.72	 5450.71
     26.8250	 6285.00	 6274.56	-2145.79	 5449.37
     26.8510	 6237.00	 6274.66	-2193.88	 5448.03
     26.8770	 6189.00	 6274.78	-2242.00	 5446.69
     26.9030	 6149.00	 6274.93	-2282.15	 5445.35
     26.9290	 6214.00	 6275.10	-2217.33	 5444.01
     26.9550	 6238.00	 6275.31	-2193.54	 5442.67
     26.9810	 6159.00	 6275.55	-2272.77	 5441.33
     27.0070	 6235.00	 6275.82	-2197.04	 5439.99
     27.0330	 6263.00	 6276.12	-2169.34	 5438.65
     27.0590	 6166.00	 6276.45	-2266.68	 5437.31
     27.0850	 6150.00	 6276.82	-2283.04	 5435.98
     27.1110	 6272.00	 6277.22	-2161.44	 5434.64
     27.1370	 6309.00	 6277.65	-2124.88	 5433.30
     27.1630	 6291.00	 6278.13	-2143.35	 5431.96
     27.1890	 6285.00	 6278.64	-2149.87	 5430.62
     27.2150	 6223.00	 6279.19	-2212.41	 5429.28
     27.2410	 6136.00	 6279.78	-2300.00	 5427.94
     27.2670	 6140.00	 6280.41	-2296.63	 5426.60
     27.2930	 6154.00	 6281.08	-2283.31	 5425.26
     27.3190	 6124.00	 6281.80	-2314.02	 5423.92
     27.3450	 6193.00	 6282.56	-2245.78	 5422.58
     27.3710	 6182.00	 6283.36	-2257.59	 5421.24
     27.3970	 6126.00	 6284.22	-2314.44	 5419.90
     27.4230	 6236.00	 6285.12	-2205.34	 5418.56
     27.4490	 6274.00	 6286.07	-2168.30	 5417.23
     27.4750	 6176.00	 6287.07	-2267.30	 5415.89
     27.5010	 6115.00	 6288.13	-2329.36	 5414.55
     27.5270	 6211.00	 6289.24	-2234.47	 5413.21
     27.5530	 6263.00	 6290.41	-2183.64	 5411.87
     27.5790	 6179.00	 6291.64	-2268.86	 5410.53
     27.6050	 6223.00	 6292.92	-2226.15	 5409.19
     27.6310	 6189.00	 6294.27	-2261.50	 5407.85
     27.6570	 6227.00	 6295.68	-2224.91	 5406.51
     27.6830	 6340.00	 6297.16	-2113.39	 5405.17
     27.7090	 6282.00	 6298.71	-2172.93	 5403.83
     27.7350	 6205.00	 6300.33	-2251.55	 5402.49
     27.7610	 6180.00	 6302.02	-2278.24	 5401.15
     27.7870	 6155.00	 6303.78	-2305.01	 5399.81
     27.8130	 6216.00	 6305.62	-2245.85	 5398.47
     27.8390	 6319.00	 6307.54	-2144.77	 5397.14
     27.8650	 6202.00	 6309.55	-2263.77	 5395.80
     27.8910	 6130.00	 6311.64	-2337.87	 5394.46
     27.9170	 6136.00	 6313.82	-2334.04	 5393.12
     27.9430	 6148.00	 6316.09	-2324.31	 5391.78
     27.9690	 6191.00	 6318.45	-2283.68	 5390.44
     27.9950	 6309.00	 6320.92	-2168.14	 5389.10
     28.0210	 6195.00	 6323.48	-2284.71	 5387.76
     28.0470	 6226.00	 6326.15	-2256.37	 5386.42
     28.0730	 6083.00	 6328.93	-2402.15	 5385.08
     28.0990	 6216.00	 6331.81	-2272.04	 5383.74
     28.1250	 6141.00	 6334.82	-2350.04	 5382.40
     28.1510	 6263.00	 6336.72	-2229.95	 5379.84
     28.1770	 6263.00	 6336.67	-2229.89	 5375.20
     28.2030	 6287.00	 6336.74	-2205.97	 5370.55
     28.2290	 6310.00	 6336.95	-2183.17	 5365.91
     28.2550	 6205.00	 6337.29	-2288.52	 5361.26
     28.2810	 6334.00	 6337.78	-2160.01	 5356.62
     28.3070	 6193.00	 6338.42	-2301.64	 5351.97
     28.3330	 6284.00	 6339.21	-2211.43	 5347.33
     28.3590	 6197.00	 6340.15	-2299.38	 5342.68
     28.3850	 6304.00	 6341.27	-2193.49	 5338.04
     28.4110	 6220.00	 6342.55	-2278.78	 5333.40
     28.4370	 6362.00	 6344.02	-2138.24	 5328.75
     28.4630	 6284.00	 6345.66	-2217.89	 5324.11
     28.4890	 6310.00	 6347.50	-2193.72	 5319.46
     28.5150	 6368.00	 6349.53	-2137.76	 5314.82
     28.5410	 6439.00	 6351.77	-2069.00	 5310.17
     28.5670	 6386.00	 6354.22	-2124.45	 5305.53
     28.5930	 6591.00	 6356.89	-1922.12	 5300.88
     28.6190	 6706.00	 6359.79	-1810.01	 5296.24
     28.6450	 6685.00	 6362.92	-1834.15	 5291.59
     28.6710	 6521.00	 6366.30	-2001.52	 5286.95
     28.6970	 6398.00	 6369.93	-2128.15	 5282.30
     28.7230	 6534.00	 6373.82	-1996.04	 5277.66
     28.7490	 6398.00	 6377.98	-2136.20	 5273.01
     28.7750	 6363.00	 6382.45	-2175.67	 5268.37
     28.8010	 6332.00	 6387.17	-2211.40	 5263.72
     28.8270	 6286.00	 6392.20	-2262.43	 5259.08
     28.8530	 6340.00	 6397.54	-2213.76	 5254.44
     28.8790	 6457.00	 6403.19	-2102.42	 5249.79
     28.9050	 6368.00	 6409.18	-2197.40	 5245.15
     28.9310	 6466.00	 6415.51	-2105.74	 5240.50
     28.9570	 6602.00	 6422.18	-1976.41	 5235.86
     28.9830	 6383.00	 6429.21	-2202.43	 5231.21
     29.0090	 6397.00	 6436.60	-2195.83	 5226.57
     29.0350	 6395.00	 6444.38	-2205.60	 5221.92
     29.0610	 6468.00	 6452.53	-2140.76	 5217.28
     29.0870	 6375.00	 6461.09	-2242.31	 5212.63
     29.1130	 6367.00	 6470.04	-2259.27	 5207.99
     29.1390	 6432.00	 6479.41	-2203.64	 5203.34
     29.1650	 6445.00	 6489.20	-2200.42	 5198.70
     29.1910	 6369.00	 6499.41	-2286.63	 5194.05
     29.2170	 6407.00	 6510.04	-2259.27	 5189.41
     29.2430	 6474.00	 6521.11	-2203.34	 5184.76
     29.2690	 6537.00	 6532.61	-2151.84	 5180.12
     29.2950	 6568.00	 6544.54	-2132.77	 5175.48
     29.3210	 6549.00	 6556.91	-2164.13	 5170.83
     29.3470	 6569.00	 6569.69	-2156.92	 5166.19
     29.3730	 6543.00	 6582.90	-2196.12	 5161.54
     29.3990	 6533.00	 6596.51	-2219.73	 5156.90
     29.4250	 6574.00	 6610.51	-2192.74	 5152.25
     29.4510	 6657.00	 6624.88	-2124.11	 5147.61
     29.4770	 6601.00	 6639.65	-2194.87	 5142.96
     29.5030	 6607.00	 6654.70	-2203.92	 5138.32
     29.5290	 6669.00	 6670.04	-2157.27	 5133.67
     29.5550	 6578.00	 6685.64	-2263.86	 5129.03
     29.5810	 6530.00	 6701.45	-2327.67	 5124.38
     29.6070	 6600.00	 6717.42	-2273.65	 5119.74
     29.6330	 6661.00	 6733.52	-2228.75	 5115.09
     29.6590	 6610.00	 6749.65	-2295.88	 5110.45
     29.6850	 6630.00	 6765.76	-2291.99	 5105.80
     29.7110	 6661.00	 6781.78	-2277.00	 5101.16
     29.7370	 6676.00	 6797.61	-2277.84	 5096.51
     29.7630	 6643.00	 6813.19	-2326.41	 5091.87
     29.7890	 6702.00	 6828.41	-2282.63	 5087.23
     29.8150	 6680.00	 6843.17	-2319.40	 5082.58
     29.8410	 6588.00	 6857.38	-2425.61	 5077.94
     29.8670	 6730.00	 6870.93	-2297.16	 5073.29
     29.8930	 6831.00	 6883.72	-2208.94	 5068.65
     29.9190	 6750.00	 6895.62	-2301.85	 5064.00
     29.9450	 6682.00	 6906.55	-2380.77	 5059.36
     29.9710	 6706.00	 6916.38	-2366.61	 5054.71
     29.9970	 6755.00	 6925.02	-2326.25	 5050.07
     30.0230	 6759.00	 6932.38	-2329.60	 5045.42
     30.0490	 6755.00	 6938.35	-2339.58	 5040.78
     30.0750	 6777.00	 6942.88	-2322.10	 5036.13
     30.1010	 6816.00	 6945.87	-2286.10	 5031.49
     30.1270	 6780.00	 6947.29	-2323.51	 5026.84
     30.1530	 6786.00	 6947.08	-2317.31	 5022.20
     30.1790	 6844.00	 6945.22	-2257.44	 5017.55
     30.2050	 6889.00	 6941.69	-2208.92	 5012.91
     30.2310	 6994.00	 6936.49	-2098.72	 5008.27
     30.2570	 6916.00	 6929.65	-2169.87	 5003.62
     30.2830	 6865.00	 6921.18	-2212.41	 4998.98
     30.3090	 6831.00	 6911.14	-2236.37	 4994.33
     30.3350	 6783.00	 6899.59	-2272.82	 4989.69
     30.3610	 6746.00	 6886.60	-2296.82	 4985.04
     30.3870	 6757.00	 6872.24	-2271.46	 4980.40
     30.4130	 6724.00	 6856.61	-2288.84	 4975.75
     30.4390	 6840.00	 6839.81	-2156.03	 4971.11
     30.4650	 6692.00	 6821.93	-2286.16	 4966.46
     30.4910	 6780.00	 6803.09	-2179.32	 4961.82
     30.5170	 6740.00	 6783.40	-2199.62	 4957.17
     30.5430	 6757.00	 6762.95	-2162.18	 4952.53
     30.5690	 6740.00	 6741.87	-2158.10	 4947.88
     30.5950	 6580.00	 6720.25	-2296.48	 4943.24
     30.6210	 6620.00	 6698.20	-2234.43	 4938.59
     30.6470	 6637.00	 6675.82	-2195.04	 4933.95
     30.6730	 6725.00	 6653.19	-2084.42	 4929.31
     30.6990	 6699.00	 6630.41	-2087.63	 4924.66
     30.7250	 6615.00	 6607.55	-2148.78	 4920.02
     30.7510	 6558.00	 6584.69	-2182.92	 4915.37
     30.7770	 6515.00	 6561.90	-2203.13	 4910.73
     30.8030	 6542.00	 6539.24	-2153.47	 4906.08
     30.8290	 6666.00	 6516.77	-2006.99	 4901.44
     30.8550	 6635.00	 6494.52	-2015.75	 4896.79
     30.8810	 6523.00	 6472.56	-2105.78	 4892.15
     30.9070	 6463.00	 6450.90	-2144.13	 4887.50
     30.9330	 6462.00	 6429.59	-2123.82	 4882.86
     30.9590	 6508.00	 6408.66	-2056.88	 4878.21
     30.9850	 6359.00	 6388.12	-2185.34	 4873.57
     31.0110	 6442.00	 6367.99	-2082.21	 4868.92
     31.0370	 6434.00	 6348.29	-2070.51	 4864.28
     31.0630	 6344.00	 6329.03	-2141.26	 4859.63
     31.0890	 6498.00	 6310.22	-1968.44	 4854.99
     31.1150	 6407.00	 6291.86	-2041.09	 4850.34
     31.1410	 6337.00	 6273.96	-2093.19	 4845.70
     31.1670	 6355.00	 6256.52	-2057.74	 4841.06
     31.1930	 6322.00	 6239.53	-2073.76	 4836.41
     31.2190	 6226.00	 6223.00	-2153.23	 4831.77
     31.2450	 6263.00	 6206.92	-2100.15	 4827.12
     31.2710	 6254.00	 6191.29	-2093.51	 4822.48
     31.2970	 6331.00	 6176.09	-2001.32	 4817.83
     31.3230	 6246.00	 6161.34	-2071.56	 4813.19
     31.3490	 6181.00	 6147.00	-2122.23	 4808.54
     31.3750	 6140.00	 6133.09	-2149.31	 4803.90
     31.4010	 6124.00	 6119.58	-2151.81	 4799.25
     31.4270	 6176.00	 6106.48	-2086.71	 4794.61
     31.4530	 6274.00	 6093.77	-1976.00	 4789.96
     31.4790	 6077.00	 6081.45	-2160.68	 4785.32
     31.5050	 6110.00	 6069.50	-2115.73	 4780.67
     31.5310	 6129.00	 6057.93	-2085.15	 4776.03
     31.5570	 6133.00	 6046.71	-2069.93	 4771.38
     31.5830	 6141.00	 6035.83	-2051.06	 4766.74
     31.6090	 6083.00	 6025.30	-2098.53	 4762.10
     31.6350	 6065.00	 6015.11	-2106.34	 4757.45
     31.6610	 5913.00	 6005.24	-2248.46	 4752.81
     31.6870	 6094.00	 5995.69	-2057.91	 4748.16
     31.7130	 6143.00	 5986.44	-1999.67	 4743.52
     31.7390	 6049.00	 5977.50	-2084.73	 4738.87
     31.7650	 6032.00	 5968.85	-2093.08	 4734.23
     31.7910	 6117.00	 5960.50	-1999.72	 4729.58
     31.8170	 6078.00	 5952.42	-2030.65	 4724.94
     31.8430	 5953.00	 5944.62	-2147.85	 4720.29
     31.8690	 6086.00	 5937.10	-2007.32	 4715.65
     31.8950	 6087.00	 5929.83	-1999.06	 4711.00
     31.9210	 5993.00	 5922.83	-2086.05	 4706.36
     31.9470	 5946.00	 5916.07	-2126.30	 4701.71
     31.9730	 6012.00	 5909.57	-2053.80	 4697.07
     31.9990	 5904.00	 5903.32	-2155.54	 4692.42
     32.0250	 5954.00	 5897.30	-2099.53	 4687.78
     32.0510	 5950.00	 5891.52	-2097.74	 4683.13
     32.0770	 5973.00	 5885.97	-2069.20	 4678.49
     32.1030	 5903.00	 5880.66	-2133.88	 4673.85
     32.1290	 5847.00	 5875.56	-2184.79	 4669.20
     32.1550	 5811.00	 5870.70	-2215.92	 4664.56
     32.1810	 5951.00	 5866.05	-2071.28	 4659.91
     32.2070	 5915.00	 5861.63	-2102.85	 4655.27
     32.2330	 5905.00	 5857.42	-2108.64	 4650.62
     32.2590	 5885.00	 5853.42	-2124.65	 4645.98
     32.2850	 5883.00	 5849.64	-2122.87	 4641.33
     32.3110	 5952.00	 5846.08	-2050.30	 4636.69
     32.3370	 5838.00	 5842.72	-2160.94	 4632.04
     32.3630	 5813.00	 5839.57	-2182.80	 4627.40
     32.3890	 5818.00	 5836.64	-2174.86	 4622.75
     32.4150	 5761.00	 5833.91	-2229.14	 4618.11
     32.4410	 5777.00	 5831.40	-2210.62	 4613.46
     32.4670	 5788.00	 5829.09	-2197.32	 4608.82
     32.4930	 5825.00	 5826.99	-2158.22	 4604.17
     32.5190	 5859.00	 5824.54	-2121.77	 4598.96
     32.5450	 5874.00	 5819.85	-2102.08	 4591.30
     32.5710	 5858.00	 5815.38	-2113.61	 4583.64
     32.5970	 5787.00	 5811.12	-2180.35	 4575.98
     32.6230	 5839.00	 5807.08	-2124.30	 4568.32
     32.6490	 5871.00	 5803.25	-2088.48	 4560.66
     32.6750	 5810.00	 5799.65	-2145.87	 4553.00
     32.7010	 5779.00	 5796.26	-2173.49	 4545.34
     32.7270	 5701.00	 5793.11	-2248.33	 4537.68
     32.7530	 5761.00	 5790.18	-2185.41	 4530.02
     32.7790	 5812.00	 5787.48	-2131.71	 4522.35
     32.8050	 5748.00	 5785.02	-2193.25	 4514.69
     32.8310	 5797.00	 5782.80	-2142.02	 4507.03
     32.8570	 5773.00	 5780.82	-2164.04	 4499.37
     32.8830	 5807.00	 5779.08	-2128.31	 4491.71
     32.9090	 5922.00	 5777.60	-2011.83	 4484.05
     32.9350	 5891.00	 5776.38	-2041.60	 4476.39
     32.9610	 5915.00	 5775.41	-2016.64	 4468.73
     32.9870	 5865.00	 5774.72	-2065.94	 4461.07
     33.0130	 5924.00	 5774.29	-2006.52	 4453.41
     33.0390	 5824.00	 5774.15	-2106.37	 4445.75
     33.0650	 5836.00	 5774.29	-2094.51	 4438.09
     33.0910	 5880.00	 5774.72	-2050.95	 4430.43
     33.1170	 5786.00	 5775.45	-2145.68	 4422.77
     33.1430	 5817.00	 5776.49	-2115.72	 4415.10
     33.1690	 5837.00	 5777.85	-2097.07	 4407.44
     33.1950	 5820.00	 5779.52	-2115.75	 4399.78
     33.2210	 5826.00	 5781.53	-2111.76	 4392.12
     33.2470	 5935.00	 5783.88	-2005.11	 4384.46
     33.2730	 6071.00	 5786.58	-1871.81	 4376.80
     33.2990	 5994.00	 5789.64	-1951.87	 4369.14
     33.3250	 5934.00	 5793.07	-2015.30	 4361.48
     33.3510	 5893.00	 5796.89	-2060.11	 4353.82
     33.3770	 5957.00	 5801.10	-2000.32	 4346.16
     33.4030	 5935.00	 5805.71	-2026.93	 4338.50
     33.4290	 5858.00	 5810.74	-2108.97	 4330.84
     33.4550	 5909.00	 5816.20	-2063.43	 4323.18
     33.4810	 5969.00	 5822.11	-2009.34	 4315.52
     33.5070	 5969.00	 5828.48	-2015.70	 4307.86
     33.5330	 6017.00	 5835.32	-1974.54	 4300.19
     33.5590	 5893.00	 5842.65	-2105.87	 4292.53
     33.5850	 5850.00	 5850.48	-2156.71	 4284.87
     33.6110	 5886.00	 5858.84	-2129.07	 4277.21
     33.6370	 6025.00	 5867.74	-1998.97	 4269.55
     33.6630	 6007.00	 5877.20	-2026.42	 4261.89
     33.6890	 6056.00	 5887.23	-1987.45	 4254.23
     33.7150	 6110.00	 5897.86	-1944.08	 4246.57
     33.7410	 6142.00	 5909.11	-1923.33	 4238.91
     33.7670	 5945.00	 5920.99	-2132.22	 4231.25
     33.7930	 5993.00	 5933.54	-2096.76	 4223.59
     33.8190	 6091.00	 5946.77	-2012.00	 4215.93
     33.8450	 6120.00	 5960.71	-1996.93	 4208.27
     33.8710	 6067.00	 5975.38	-2064.61	 4200.61
     33.8970	 5981.00	 5990.81	-2166.03	 4192.95
     33.9230	 6132.00	 6007.02	-2031.24	 4185.28
     33.9490	 6327.00	 6024.04	-1853.27	 4177.62
     33.9750	 6115.00	 6041.91	-2083.13	 4169.96
     34.0010	 6298.00	 6060.63	-1918.86	 4162.30
     34.0270	 6165.00	 6080.27	-2071.49	 4154.64
     34.0530	 6302.00	 6100.82	-1955.05	 4146.98
     34.0790	 6410.00	 6122.34	-1868.57	 4139.32
     34.1050	 6388.00	 6144.85	-1913.08	 4131.66
     34.1310	 6342.00	 6168.39	-1982.62	 4124.00
     34.1570	 6402.00	 6192.99	-1947.22	 4116.34
     34.1830	 6382.00	 6218.69	-1992.91	 4108.68
     34.2090	 6584.00	 6245.50	-1817.73	 4101.02
     34.2350	 6589.00	 6273.49	-1840.71	 4093.36
     34.2610	 6630.00	 6302.67	-1828.90	 4085.70
     34.2870	 6557.00	 6333.09	-1932.32	 4078.03
     34.3130	 6542.00	 6364.77	-1979.00	 4070.37
     34.3390	 6704.00	 6397.77	-1849.99	 4062.71
     34.3650	 6597.00	 6432.10	-1991.33	 4055.05
     34.3910	 6699.00	 6467.81	-1925.03	 4047.39
     34.4170	 6704.00	 6504.91	-1957.14	 4039.73
     34.4430	 6778.00	 6543.46	-1921.69	 4032.07
     34.4690	 6854.00	 6583.47	-1885.70	 4024.41
     34.4950	 6843.00	 6624.97	-1938.20	 4016.75
     34.5210	 6832.00	 6667.99	-1992.22	 4009.09
     34.5470	 6894.00	 6712.55	-1974.77	 4001.43
     34.5730	 7042.00	 6758.65	-1872.88	 3993.77
     34.5990	 7203.00	 6806.31	-1759.53	 3986.11
     34.6250	 7268.00	 6855.54	-1743.76	 3978.45
     34.6510	 7154.00	 6906.33	-1908.56	 3970.79
     34.6770	 7168.00	 6958.68	-1946.91	 3963.12
     34.7030	 7255.00	 7012.55	-1913.78	 3955.46
     34.7290	 7344.00	 7067.95	-1880.17	 3947.80
     34.7550	 7428.00	 7124.80	-1853.03	 3940.14
     34.7810	 7528.00	 7183.08	-1811.30	 3932.48
     34.8070	 7464.00	 7242.69	-1934.92	 3924.82
     34.8330	 7496.00	 7303.59	-1963.82	 3917.16
     34.8590	 7621.00	 7365.67	-1900.89	 3909.50
     34.8850	 7559.00	 7428.80	-2026.03	 3901.84
     34.9110	 7552.00	 7492.86	-2097.08	 3894.18
     34.9370	 7684.00	 7557.70	-2029.92	 3886.52
     34.9630	 7795.00	 7623.14	-1984.37	 3878.86
     34.9890	 7832.00	 7689.00	-2013.22	 3871.20
     35.0150	 7848.00	 7755.03	-2063.26	 3863.54
     35.0410	 7874.00	 7821.03	-2103.25	 3855.88
     35.0670	 7932.00	 7886.71	-2110.93	 3848.21
     35.0930	 7969.00	 7951.79	-2139.01	 3840.55
     35.1190	 7995.00	 8015.95	-2177.17	 3832.89
     35.1450	 7941.00	 8078.87	-2294.10	 3825.23
     35.1710	 7967.00	 8140.21	-2329.44	 3817.57
     35.1970	 8042.00	 8199.60	-2313.83	 3809.91
     35.2230	 8018.00	 8256.65	-2394.88	 3802.25
     35.2490	 7969.00	 8310.99	-2498.22	 3794.59
     35.2750	 7975.00	 8362.22	-2543.45	 3786.93
     35.3010	 8073.00	 8409.96	-2493.18	 3779.27
     35.3270	 8038.00	 8453.80	-2572.02	 3771.61
     35.3530	 7990.00	 8493.38	-2659.61	 3763.95
     35.3790	 7980.00	 8528.35	-2704.58	 3756.29
     35.4050	 8033.00	 8558.37	-2681.60	 3748.63
     35.4310	 8047.00	 8583.13	-2692.36	 3740.97
     35.4570	 7954.00	 8602.37	-2804.60	 3733.30
     35.4830	 8011.00	 8615.86	-2761.09	 3725.64
     35.5090	 8000.00	 8623.42	-2779.64	 3717.98
     35.5350	 7910.00	 8624.90	-2871.13	 3710.32
     35.5610	 7859.00	 8620.24	-2917.47	 3702.66
     35.5870	 7913.00	 8609.41	-2852.63	 3695.00
     35.6130	 8023.00	 8592.42	-2725.65	 3687.34
     35.6390	 7903.00	 8569.37	-2822.59	 3679.68
     35.6650	 7940.00	 8540.37	-2756.60	 3672.02
     35.6910	 7785.00	 8505.63	-2876.85	 3664.36
     35.7170	 7751.00	 8465.35	-2870.58	 3656.70
     35.7430	 7774.00	 8419.82	-2802.04	 3649.04
     35.7690	 7665.00	 8369.32	-2860.55	 3641.38
     35.7950	 7587.00	 8314.20	-2883.42	 3633.72
     35.8210	 7556.00	 8254.81	-2855.04	 3626.06
     35.8470	 7540.00	 8191.53	-2807.75	 3618.39
     35.8730	 7435.00	 8124.73	-2845.95	 3610.73
     35.8990	 7439.00	 8054.81	-2772.03	 3603.07
     35.9250	 7472.00	 7982.17	-2666.39	 3595.41
     35.9510	 7324.00	 7907.18	-2739.40	 3587.75
     35.9770	 7302.00	 7830.22	-2684.45	 3580.09
     36.0030	 7360.00	 7751.66	-2547.89	 3572.43
     36.0290	 7272.00	 7671.86	-2556.09	 3564.77
     36.0550	 7281.00	 7591.12	-2466.35	 3557.11
     36.0810	 7050.00	 7509.77	-2616.00	 3549.45
     36.1070	 7031.00	 7428.09	-2553.31	 3541.79
     36.1330	 7003.00	 7346.36	-2499.58	 3534.13
     36.1590	 7010.00	 7264.79	-2411.02	 3526.47
     36.1850	 6905.00	 7183.62	-2434.85	 3518.80
     36.2110	 6825.00	 7103.04	-2434.27	 3511.14
     36.2370	 6662.00	 7023.24	-2517.47	 3503.48
     36.2630	 6705.00	 6944.35	-2395.58	 3495.82
     36.2890	 6730.00	 6866.51	-2292.74	 3488.16
     36.3150	 6620.00	 6789.84	-2326.06	 3480.50
     36.3410	 6629.00	 6714.44	-2241.66	 3472.84
     36.3670	 6366.00	 6640.37	-2430.60	 3465.18
     36.3930	 6340.00	 6567.71	-2383.94	 3457.52
     36.4190	 6154.00	 6496.51	-2498.74	 3449.86
     36.4450	 6245.00	 6426.83	-2338.05	 3442.20
     36.4710	 6243.00	 6358.66	-2271.88	 3434.54
     36.4970	 6134.00	 6292.03	-2314.26	 3426.88
     36.5230	 6168.00	 6226.97	-2215.19	 3419.22
     36.5490	 6087.00	 6163.47	-2232.69	 3411.56
     36.5750	 5959.00	 6101.52	-2298.74	 3403.90
     36.6010	 5949.00	 6041.11	-2248.33	 3396.23
     36.6270	 5971.00	 5982.24	-2167.46	 3388.57
     36.6530	 5862.00	 5924.86	-2219.09	 3380.91
     36.6790	 5803.00	 5868.98	-2222.20	 3373.25
     36.7050	 5747.00	 5814.55	-2223.77	 3365.59
     36.7310	 5803.00	 5761.56	-2114.78	 3357.93
     36.7570	 5689.00	 5709.95	-2177.18	 3350.27
     36.7830	 5749.00	 5659.72	-2066.94	 3342.61
     36.8090	 5692.00	 5610.81	-2075.04	 3334.95
     36.8350	 5696.00	 5563.21	-2023.44	 3327.29
     36.8610	 5649.00	 5516.86	-2024.09	 3319.63
     36.8870	 5587.00	 5471.74	-2040.96	 3311.97
     36.9130	 5546.00	 5427.80	-2038.03	 3304.31
     36.9390	 5585.00	 5385.03	-1956.25	 3296.65
     36.9650	 5533.00	 5343.36	-1966.59	 3288.99
     36.9910	 5496.00	 5302.78	-1963.00	 3281.32
     37.0170	 5451.00	 5263.24	-1968.47	 3273.66
     37.0430	 5427.00	 5224.72	-1953.95	 3266.00
     37.0690	 5515.00	 5187.18	-1828.41	 3258.34
     37.0950	 5481.00	 5150.58	-1825.81	 3250.68
     37.1210	 5435.00	 5114.90	-1836.13	 3243.02
     37.1470	 5302.00	 5080.10	-1934.33	 3235.36
     37.1730	 5300.00	 5046.16	-1902.38	 3227.70
     37.1990	 5343.00	 5013.03	-1826.26	 3220.04
     37.2250	 5192.00	 4980.70	-1944.93	 3212.38
     37.2510	 5097.00	 4949.14	-2008.37	 3204.72
     37.2770	 5125.00	 4918.32	-1949.55	 3197.06
     37.3030	 5069.00	 4888.21	-1975.44	 3189.40
     37.3290	 5118.00	 4858.79	-1897.02	 3181.73
     37.3550	 5110.00	 4830.04	-1876.27	 3174.07
     37.3810	 5044.00	 4801.93	-1914.16	 3166.41
     37.4070	 5005.00	 4777.23	-1928.46	 3161.55
     37.4330	 4899.00	 4756.15	-2013.38	 3159.70
     37.4590	 4889.00	 4735.65	-2002.87	 3157.85
     37.4850	 4890.00	 4715.70	-1981.93	 3156.00
     37.5110	 4872.00	 4696.29	-1980.52	 3154.16
     37.5370	 4811.00	 4677.40	-2022.63	 3152.31
     37.5630	 4817.00	 4659.02	-1998.24	 3150.46
     37.5890	 4778.00	 4641.11	-2019.34	 3148.61
     37.6150	 4766.00	 4623.68	-2013.90	 3146.76
     37.6410	 4697.00	 4606.69	-2065.92	 3144.91
     37.6670	 4615.00	 4590.15	-2131.37	 3143.07
     37.6930	 4641.00	 4574.02	-2089.25	 3141.22
     37.7190	 4538.00	 4558.30	-2176.53	 3139.37
     37.7450	 4544.00	 4542.98	-2155.21	 3137.52
     37.7710	 4573.00	 4528.04	-2111.27	 3135.67
     37.7970	 4509.00	 4513.47	-2160.69	 3133.83
     37.8230	 4538.00	 4499.25	-2117.48	 3131.98
     37.8490	 4468.00	 4485.38	-2173.61	 3130.13
     37.8750	 4385.00	 4471.84	-2243.07	 3128.28
     37.9010	 4370.00	 4458.62	-2244.85	 3126.43
     37.9270	 4404.00	 4445.72	-2197.95	 3124.59
     37.9530	 4458.00	 4433.12	-2131.35	 3122.74
     37.9790	 4416.00	 4420.81	-2161.04	 3120.89
     38.0050	 4372.00	 4408.78	-2193.01	 3119.04
     38.0310	 4352.00	 4397.03	-2201.26	 3117.19
     38.0570	 4323.00	 4385.55	-2218.77	 3115.35
     38.0830	 4267.00	 4374.32	-2263.54	 3113.50
     38.1090	 4308.00	 4363.34	-2211.56	 3111.65
     38.1350	 4390.00	 4352.60	-2118.82	 3109.80
     38.1610	 4313.00	 4342.10	-2185.32	 3107.95
     38.1870	 4242.00	 4331.82	-2246.04	 3106.10
     38.2130	 4409.00	 4321.76	-2068.99	 3104.26
     38.2390	 4350.00	 4311.92	-2118.14	 3102.41
     38.2650	 4334.00	 4302.28	-2124.51	 3100.56
     38.2910	 4240.00	 4292.84	-2209.07	 3098.71
     38.3170	 4243.00	 4283.60	-2196.83	 3096.86
     38.3430	 4172.00	 4274.55	-2258.78	 3095.02
     38.3690	 4244.00	 4265.68	-2177.91	 3093.17
     38.3950	 4283.00	 4256.99	-2130.22	 3091.32
     38.4210	 4289.00	 4248.48	-2115.70	 3089.47
     38.4470	 4250.00	 4240.13	-2146.36	 3087.62
     38.4730	 4159.00	 4231.95	-2229.17	 3085.78
     38.4990	 4182.00	 4223.92	-2198.15	 3083.93
     38.5250	 4205.00	 4216.05	-2167.28	 3082.08
     38.5510	 4230.00	 4208.33	-2134.56	 3080.23
     38.5770	 4147.00	 4200.76	-2209.98	 3078.38
     38.6030	 4159.00	 4193.33	-2190.55	 3076.54
     38.6290	 4169.00	 4186.04	-2173.26	 3074.69
     38.6550	 4172.00	 4178.88	-2163.10	 3072.84
     38.6810	 4131.00	 4171.85	-2197.08	 3070.99
     38.7070	 4237.00	 4164.95	-2084.18	 3069.14
     38.7330	 4117.00	 4158.18	-2197.41	 3067.30
     38.7590	 4234.00	 4151.53	-2073.75	 3065.45
     38.7850	 4141.00	 4145.00	-2160.22	 3063.60
     38.8110	 4166.00	 4138.58	-2128.80	 3061.75
     38.8370	 4238.00	 4132.27	-2050.50	 3059.90
     38.8630	 4069.00	 4126.08	-2213.31	 3058.05
     38.8890	 4190.00	 4119.99	-2086.22	 3056.21
     38.9150	 4207.00	 4114.01	-2063.24	 3054.36
     38.9410	 4120.00	 4108.13	-2144.36	 3052.51
     38.9670	 4044.00	 4102.35	-2214.58	 3050.66
     38.9930	 4054.00	 4096.67	-2198.89	 3048.81
     39.0190	 4129.00	 4091.08	-2118.31	 3046.97
     39.0450	 4060.00	 4085.59	-2181.81	 3045.12
     39.0710	 4085.00	 4080.19	-2151.41	 3043.27
     39.0970	 4046.00	 4074.88	-2185.10	 3041.42
     39.1230	 3974.00	 4069.65	-2251.88	 3039.57
     39.1490	 4037.00	 4064.51	-2183.74	 3037.73
     39.1750	 4039.00	 4059.46	-2176.69	 3035.88
     39.2010	 3985.00	 4054.49	-2225.71	 3034.03
     39.2270	 4056.00	 4049.60	-2149.82	 3032.18
     39.2530	 4031.00	 4044.78	-2170.01	 3030.33
     39.2790	 4013.00	 4040.05	-2183.28	 3028.49
     39.3050	 4050.00	 4035.39	-2141.62	 3026.64
     39.3310	 4073.00	 4030.81	-2114.04	 3024.79
     39.3570	 4031.00	 4026.30	-2151.53	 3022.94
     39.3830	 4122.00	 4021.87	-2056.09	 3021.09
     39.4090	 4006.00	 4017.50	-2167.73	 3019.24
     39.4350	 4097.00	 4013.21	-2072.43	 3017.40
     39.4610	 4043.00	 4008.98	-2122.20	 3015.55
     39.4870	 4042.00	 4004.82	-2119.05	 3013.70
     39.5130	 4055.00	 4000.73	-2101.96	 3011.85
     39.5390	 4085.00	 3996.70	-2067.93	 3010.00
     39.5650	 4070.00	 3992.74	-2078.97	 3008.16
     39.5910	 4069.00	 3988.85	-2076.07	 3006.31
     39.6170	 4079.00	 3985.02	-2062.24	 3004.46
     39.6430	 3963.00	 3981.25	-2174.47	 3002.61
     39.6690	 4029.00	 3977.54	-2104.76	 3000.76
     39.6950	 4021.00	 3973.89	-2109.12	 2998.92
     39.7210	 3951.00	 3970.30	-2175.53	 2997.07
     39.7470	 3893.00	 3966.78	-2230.00	 2995.22
     39.7730	 3941.00	 3963.31	-2178.54	 2993.37
     39.7990	 3982.00	 3959.90	-2134.13	 2991.52
     39.8250	 3984.00	 3956.55	-2128.78	 2989.68
     39.8510	 3993.00	 3953.26	-2116.49	 2987.83
     39.8770	 3912.00	 3950.03	-2194.25	 2985.98
     39.9030	 3868.00	 3946.85	-2235.07	 2984.13
     39.9290	 3947.00	 3943.73	-2152.95	 2982.28
     39.9550	 4007.00	 3940.67	-2089.89	 2980.43
     39.9810	 3978.00	 3937.66	-2115.88	 2978.59
     40.0070	 3951.00	 3934.71	-2139.93	 2976.74
     40.0330	 3988.00	 3931.81	-2100.04	 2974.89
     40.0590	 4081.00	 3928.97	-2004.20	 2973.04
     40.0850	 4127.00	 3926.19	-1955.42	 2971.19
     40.1110	 3969.00	 3923.46	-2110.69	 2969.35
     40.1370	 3940.00	 3920.79	-2137.02	 2967.50
     40.1630	 3992.00	 3918.17	-2082.40	 2965.65
     40.1890	 4008.00	 3915.62	-2063.84	 2963.80
     40.2150	 4025.00	 3913.11	-2044.34	 2961.95
     40.2410	 4040.00	 3910.66	-2026.89	 2960.11
     40.2670	 4103.00	 3908.27	-1961.50	 2958.26
     40.2930	 4090.00	 3905.94	-1972.16	 2956.41
     40.3190	 4009.00	 3903.66	-2050.89	 2954.56
     40.3450	 3986.00	 3901.44	-2071.67	 2952.71
     40.3710	 4001.00	 3899.28	-2054.50	 2950.87
     40.3970	 3943.00	 3897.17	-2110.40	 2949.02
     40.4230	 3946.00	 3895.13	-2105.35	 2947.17
     40.4490	 3947.00	 3893.14	-2102.37	 2945.32
     40.4750	 3878.00	 3891.21	-2169.44	 2943.47
     40.5010	 3950.00	 3889.35	-2095.57	 2941.62
     40.5270	 3987.00	 3887.54	-2056.77	 2939.78
     40.5530	 3946.00	 3885.80	-2096.02	 2937.93
     40.5790	 3972.00	 3884.12	-2068.34	 2936.08
     40.6050	 3992.00	 3882.50	-2046.72	 2934.23
     40.6310	 3918.00	 3880.94	-2119.17	 2932.38
     40.6570	 3905.00	 3879.46	-2130.68	 2930.54
     40.6830	 3971.00	 3878.04	-2063.26	 2928.69
     40.7090	 3924.00	 3876.68	-2108.91	 2926.84
     40.7350	 3921.00	 3875.40	-2110.62	 2924.99
     40.7610	 3937.00	 3874.18	-2093.41	 2923.14
     40.7870	 3972.00	 3873.04	-2057.26	 2921.30
     40.8130	 3861.00	 3871.96	-2167.19	 2919.45
     40.8390	 3881.00	 3870.97	-2146.19	 2917.60
     40.8650	 3940.00	 3870.04	-2086.27	 2915.75
     40.8910	 3973.00	 3869.20	-2052.42	 2913.90
     40.9170	 3941.00	 3868.43	-2083.66	 2912.06
     40.9430	 3957.00	 3867.75	-2066.97	 2910.21
     40.9690	 3882.00	 3867.14	-2141.37	 2908.36
     40.9950	 3833.00	 3866.70	-2189.92	 2906.58
     41.0210	 3808.00	 3866.46	-2214.68	 2904.93
     41.0470	 3964.00	 3866.31	-2058.53	 2903.28
     41.0730	 3898.00	 3866.25	-2124.47	 2901.62
     41.0990	 3910.00	 3866.28	-2112.51	 2899.97
     41.1250	 3893.00	 3866.41	-2129.64	 2898.31
     41.1510	 3901.00	 3866.64	-2121.87	 2896.66
     41.1770	 3977.00	 3866.97	-2046.19	 2895.01
     41.2030	 3915.00	 3867.40	-2108.63	 2893.35
     41.2290	 3899.00	 3867.94	-2125.16	 2891.70
     41.2550	 3958.00	 3868.59	-2066.81	 2890.05
     41.2810	 3940.00	 3869.35	-2085.57	 2888.39
     41.3070	 3904.00	 3870.22	-2122.45	 2886.74
     41.3330	 3850.00	 3871.22	-2177.45	 2885.08
     41.3590	 3925.00	 3872.34	-2103.57	 2883.43
     41.3850	 3914.00	 3873.59	-2115.81	 2881.78
     41.4110	 3970.00	 3874.96	-2061.19	 2880.12
     41.4370	 3876.00	 3876.47	-2156.70	 2878.47
     41.4630	 3930.00	 3878.12	-2104.35	 2876.81
     41.4890	 3941.00	 3879.92	-2095.14	 2875.16
     41.5150	 3846.00	 3881.86	-2192.08	 2873.51
     41.5410	 3914.00	 3883.95	-2126.17	 2871.85
     41.5670	 4036.00	 3886.20	-2006.42	 2870.20
     41.5930	 3877.00	 3888.61	-2167.83	 2868.54
     41.6190	 3874.00	 3891.19	-2173.41	 2866.89
     41.6450	 3906.00	 3893.94	-2144.16	 2865.24
     41.6710	 3925.00	 3896.86	-2128.09	 2863.58
     41.6970	 3814.00	 3899.97	-2242.20	 2861.93
     41.7230	 3844.00	 3903.27	-2215.50	 2860.27
     41.7490	 3902.00	 3906.77	-2160.99	 2858.62
     41.7750	 3819.00	 3910.46	-2247.69	 2856.97
     41.8010	 3809.00	 3914.36	-2261.59	 2855.31
     41.8270	 3939.00	 3918.47	-2135.70	 2853.66
     41.8530	 3850.00	 3922.81	-2229.03	 2852.00
     41.8790	 3879.00	 3927.36	-2204.59	 2850.35
     41.9050	 3885.00	 3932.15	-2203.38	 2848.70
     41.9310	 3821.00	 3937.17	-2272.40	 2847.04
     41.9570	 3932.00	 3942.44	-2166.67	 2845.39
     41.9830	 3876.00	 3947.96	-2228.19	 2843.73
     42.0090	 3898.00	 3953.74	-2211.96	 2842.08
     42.0350	 3900.00	 3959.77	-2216.00	 2840.43
     42.0610	 3891.00	 3966.07	-2231.30	 2838.77
     42.0870	 3836.00	 3972.65	-2292.88	 2837.12
     42.1130	 3807.00	 3979.50	-2328.73	 2835.47
     42.1390	 3864.00	 3986.64	-2278.86	 2833.81
     42.1650	 3850.00	 3994.06	-2300.28	 2832.16
     42.1910	 3821.00	 4001.77	-2336.99	 2830.50
     42.2170	 3848.00	 4009.77	-2317.99	 2828.85
     42.2430	 3873.00	 4018.06	-2301.29	 2827.20
     42.2690	 3844.00	 4026.65	-2338.87	 2825.54
     42.2950	 3861.00	 4035.52	-2330.75	 2823.89
     42.3210	 3864.00	 4044.69	-2336.92	 2822.23
     42.3470	 3889.00	 4054.15	-2321.37	 2820.58
     42.3730	 3818.00	 4063.88	-2402.11	 2818.93
     42.3990	 3824.00	 4073.89	-2406.12	 2817.27
     42.4250	 3895.00	 4084.16	-2345.39	 2815.62
     42.4510	 3843.00	 4094.68	-2407.91	 2813.96
     42.4770	 3974.00	 4105.44	-2287.67	 2812.31
     42.5030	 3938.00	 4116.42	-2334.64	 2810.66
     42.5290	 3916.00	 4127.59	-2367.82	 2809.00
     42.5550	 3924.00	 4138.94	-2371.17	 2807.35
     42.5810	 3950.00	 4150.44	-2356.66	 2805.69
     42.6070	 4118.00	 4162.05	-2200.27	 2804.04
     42.6330	 4003.00	 4173.74	-2326.96	 2802.39
     42.6590	 4109.00	 4185.47	-2232.70	 2800.73
     42.6850	 4202.00	 4197.20	-2151.43	 2799.08
     42.7110	 4221.00	 4208.88	-2144.11	 2797.42
     42.7370	 4294.00	 4220.46	-2082.69	 2795.77
     42.7630	 4304.00	 4231.89	-2084.11	 2794.12
     42.7890	 4402.00	 4243.10	-1997.33	 2792.46
     42.8150	 4526.00	 4254.04	-1884.27	 2790.81
     42.8410	 4516.00	 4264.64	-1904.86	 2789.16
     42.8670	 4534.00	 4274.83	-1897.06	 2787.50
     42.8930	 4588.00	 4284.55	-1852.77	 2785.85
     42.9190	 4628.00	 4293.72	-1821.95	 2784.19
     42.9450	 4623.00	 4302.28	-1835.50	 2782.54
     42.9710	 4674.00	 4310.15	-1792.38	 2780.89
     42.9970	 4712.00	 4317.27	-1761.50	 2779.23
     43.0230	 4735.00	 4323.58	-1744.80	 2777.58
     43.0490	 4794.00	 4329.00	-1691.23	 2775.92
     43.0750	 4778.00	 4333.49	-1711.72	 2774.27
     43.1010	 4845.00	 4337.00	-1648.23	 2772.62
     43.1270	 4911.00	 4339.48	-1584.70	 2770.96
     43.1530	 4909.00	 4340.89	-1588.11	 2769.31
     43.1790	 4942.00	 4341.21	-1555.43	 2767.65
     43.2050	 4944.00	 4340.41	-1552.64	 2766.00
     43.2310	 4988.00	 4338.49	-1506.72	 2764.35
     43.2570	 5004.00	 4335.44	-1487.67	 2762.69
     43.2830	 4997.00	 4331.28	-1490.51	 2761.04
     43.3090	 5018.00	 4326.02	-1464.24	 2759.38
     43.3350	 4980.00	 4319.69	-1495.91	 2757.73
     43.3610	 4913.00	 4312.31	-1555.54	 2756.08
     43.3870	 5029.00	 4303.94	-1431.17	 2754.42
     43.4130	 5052.00	 4294.63	-1398.85	 2752.77
     43.4390	 4925.00	 4284.42	-1515.65	 2751.11
     43.4650	 4867.00	 4273.39	-1562.61	 2749.46
     43.4910	 4832.00	 4261.58	-1585.81	 2747.81
     43.5170	 4845.00	 4249.08	-1560.30	 2746.15
     43.5430	 4690.00	 4235.94	-1702.17	 2744.50
     43.5690	 4618.00	 4222.25	-1760.47	 2742.85
     43.5950	 4670.00	 4208.05	-1694.28	 2741.19
     43.6210	 4694.00	 4193.44	-1655.67	 2739.54
     43.6470	 4564.00	 4178.47	-1770.70	 2737.88
     43.6730	 4466.00	 4163.21	-1853.43	 2736.23
     43.6990	 4404.00	 4147.71	-1899.94	 2734.58
     43.7250	 4352.00	 4132.05	-1936.28	 2732.92
     43.7510	 4242.00	 4116.28	-2030.50	 2731.27
     43.7770	 4157.00	 4100.43	-2099.66	 2729.61
     43.8030	 4154.00	 4084.58	-2086.80	 2727.96
     43.8290	 4095.00	 4068.75	-2129.97	 2726.31
     43.8550	 3990.00	 4052.99	-2219.21	 2724.65
     43.8810	 3979.00	 4037.33	-2214.56	 2723.00
     43.9070	 3909.00	 4021.81	-2269.03	 2721.34
     43.9330	 3900.00	 4006.45	-2262.68	 2719.69
     43.9590	 3845.00	 3991.28	-2302.51	 2718.04
     43.9850	 3786.00	 3976.32	-2346.55	 2716.38
     44.0110	 3823.00	 3961.59	-2294.82	 2714.73
     44.0370	 3737.00	 3947.10	-2366.33	 2713.07
     44.0630	 3781.00	 3932.87	-2308.10	 2711.42
     44.0890	 3743.00	 3918.91	-2332.14	 2709.77
     44.1150	 3604.00	 3905.22	-2457.44	 2708.11
     44.1410	 3521.00	 3891.81	-2527.03	 2706.46
     44.1670	 3678.00	 3878.69	-2356.91	 2704.80
     44.1930	 3599.00	 3865.85	-2423.07	 2703.15
     44.2190	 3538.00	 3853.30	-2471.52	 2701.50
     44.2450	 3573.00	 3841.03	-2424.26	 2699.84
     44.2710	 3546.00	 3829.06	-2439.29	 2698.19
     44.2970	 3596.00	 3817.37	-2377.59	 2696.53
     44.3230	 3525.00	 3805.96	-2437.18	 2694.88
     44.3490	 3483.00	 3794.83	-2468.05	 2693.23
     44.3750	 3541.00	 3783.97	-2399.19	 2691.57
     44.4010	 3545.00	 3773.38	-2384.60	 2689.92
     44.4270	 3534.00	 3763.05	-2385.27	 2688.27
     44.4530	 3460.00	 3752.98	-2449.20	 2686.61
     44.4790	 3443.00	 3743.16	-2456.38	 2684.96
     44.5050	 3605.00	 3733.58	-2284.81	 2683.30
     44.5310	 3465.00	 3724.25	-2415.47	 2681.65
     44.5570	 3446.00	 3715.15	-2425.37	 2680.00
     44.5830	 3406.00	 3706.27	-2456.49	 2678.34
     44.6090	 3417.00	 3698.19	-2437.41	 2677.27
     44.6350	 3511.00	 3690.47	-2335.70	 2676.34
     44.6610	 3581.00	 3682.96	-2258.19	 2675.41
     44.6870	 3507.00	 3675.65	-2324.88	 2674.48
     44.7130	 3497.00	 3668.53	-2327.76	 2673.55
     44.7390	 3527.00	 3661.61	-2290.83	 2672.62
     44.7650	 3458.00	 3654.86	-2353.09	 2671.70
     44.7910	 3459.00	 3648.29	-2345.52	 2670.77
     44.8170	 3482.00	 3641.89	-2316.12	 2669.84
     44.8430	 3362.00	 3635.66	-2429.89	 2668.91
     44.8690	 3404.00	 3629.59	-2381.81	 2667.98
     44.8950	 3429.00	 3623.67	-2350.89	 2667.05
     44.9210	 3349.00	 3617.90	-2425.12	 2666.13
     44.9470	 3403.00	 3612.27	-2365.50	 2665.20
     44.9730	 3411.00	 3606.79	-2352.01	 2664.27
     44.9990	 3432.00	 3601.44	-2325.66	 2663.34
     45.0250	 3319.00	 3596.21	-2433.44	 2662.41
     45.0510	 3317.00	 3591.12	-2430.34	 2661.48
     45.0770	 3419.00	 3586.15	-2323.37	 2660.56
     45.1030	 3350.00	 3581.29	-2387.51	 2659.63
     45.1290	 3332.00	 3576.54	-2400.77	 2658.70
     45.1550	 3322.00	 3571.91	-2406.14	 2657.77
     45.1810	 3410.00	 3567.38	-2313.61	 2656.84
     45.2070	 3450.00	 3562.96	-2269.18	 2655.91
     45.2330	 3375.00	 3558.63	-2339.85	 2654.99
     45.2590	 3312.00	 3554.40	-2398.62	 2654.06
     45.2850	 3334.00	 3550.26	-2372.48	 2653.13
     45.3110	 3350.00	 3546.21	-2352.43	 2652.20
     45.3370	 3334.00	 3542.24	-2364.47	 2651.27
     45.3630	 3377.00	 3538.36	-2317.59	 2650.34
     45.3890	 3375.00	 3534.56	-2315.79	 2649.42
     45.4150	 3321.00	 3530.84	-2366.07	 2648.49
     45.4410	 3310.00	 3527.19	-2373.42	 2647.56
     45.4670	 3305.00	 3523.62	-2374.84	 2646.63
     45.4930	 3297.00	 3520.12	-2379.34	 2645.70
     45.5190	 3319.00	 3516.68	-2353.91	 2644.77
     45.5450	 3378.00	 3513.31	-2291.54	 2643.85
     45.5710	 3426.00	 3510.01	-2240.23	 2642.92
     45.5970	 3403.00	 3506.76	-2259.99	 2641.99
     45.6230	 3337.00	 3503.58	-2322.81	 2641.06
     45.6490	 3347.00	 3500.45	-2309.68	 2640.13
     45.6750	 3396.00	 3497.39	-2257.61	 2639.20
     45.7010	 3420.00	 3494.37	-2230.60	 2638.28
     45.7270	 3402.00	 3491.41	-2245.64	 2637.35
     45.7530	 3355.00	 3488.50	-2289.72	 2636.42
     45.7790	 3385.00	 3485.64	-2256.86	 2635.49
     45.8050	 3359.00	 3482.83	-2280.05	 2634.56
     45.8310	 3350.00	 3480.06	-2286.29	 2633.63
     45.8570	 3411.00	 3477.34	-2222.56	 2632.71
     45.8830	 3318.00	 3474.66	-2312.89	 2631.78
     45.9090	 3327.00	 3472.03	-2301.25	 2630.85
     45.9350	 3359.00	 3469.44	-2266.66	 2629.92
     45.9610	 3296.00	 3466.88	-2327.11	 2628.99
     45.9870	 3339.00	 3464.37	-2281.59	 2628.06
     46.0130	 3374.00	 3461.89	-2244.12	 2627.14
     46.0390	 3380.00	 3459.45	-2235.68	 2626.21
     46.0650	 3409.00	 3457.05	-2204.28	 2625.28
     46.0910	 3343.00	 3454.68	-2267.91	 2624.35
     46.1170	 3300.00	 3452.35	-2308.57	 2623.42
     46.1430	 3373.00	 3450.05	-2233.27	 2622.49
     46.1690	 3247.00	 3447.78	-2357.00	 2621.57
     46.1950	 3301.00	 3445.54	-2300.76	 2620.64
     46.2210	 3446.00	 3443.33	-2153.55	 2619.71
     46.2470	 3348.00	 3441.15	-2249.37	 2618.78
     46.2730	 3338.00	 3439.00	-2257.22	 2617.85
     46.2990	 3342.00	 3436.88	-2251.10	 2616.93
     46.3250	 3327.00	 3434.78	-2264.01	 2616.00
     46.3510	 3339.00	 3432.71	-2249.94	 2615.07
     46.3770	 3220.00	 3430.67	-2366.89	 2614.14
     46.4030	 3252.00	 3428.65	-2332.87	 2613.21
     46.4290	 3301.00	 3426.65	-2281.88	 2612.28
     46.4550	 3417.00	 3424.68	-2163.91	 2611.36
     46.4810	 3368.00	 3422.74	-2210.96	 2610.43
     46.5070	 3353.00	 3420.81	-2224.04	 2609.50
     46.5330	 3325.00	 3418.91	-2250.14	 2608.57
     46.5590	 3381.00	 3417.03	-2192.25	 2607.64
     46.5850	 3312.00	 3415.17	-2259.40	 2606.71
     46.6110	 3350.00	 3413.33	-2219.56	 2605.79
     46.6370	 3353.00	 3411.51	-2214.74	 2604.86
     46.6630	 3395.00	 3409.71	-2170.94	 2603.93
     46.6890	 3354.00	 3407.93	-2210.16	 2603.00
     46.7150	 3338.00	 3406.17	-2224.40	 2602.07
     46.7410	 3353.00	 3404.43	-2207.65	 2601.14
     46.7670	 3299.00	 3402.70	-2259.93	 2600.22
     46.7930	 3389.00	 3400.99	-2168.22	 2599.29
     46.8190	 3284.00	 3399.30	-2271.53	 2598.36
     46.8450	 3342.00	 3397.63	-2211.85	 2597.43
     46.8710	 3393.00	 3395.97	-2159.19	 2596.50
     46.8970	 3362.00	 3394.33	-2188.55	 2595.57
     46.9230	 3253.00	 3392.70	-2295.93	 2594.65
     46.9490	 3392.00	 3391.09	-2155.31	 2593.72
     46.9750	 3283.00	 3389.49	-2262.72	 2592.79
     47.0010	 3431.00	 3387.91	-2113.14	 2591.86
     47.0270	 3421.00	 3386.34	-2121.57	 2590.93
     47.0530	 3364.00	 3384.79	-2177.02	 2590.00
     47.0790	 3333.00	 3383.25	-2206.48	 2589.08
     47.1050	 3268.00	 3381.73	-2269.95	 2588.15
     47.1310	 3349.00	 3380.21	-2187.44	 2587.22
     47.1570	 3347.00	 3378.71	-2187.94	 2586.29
     47.1830	 3328.00	 3377.23	-2205.45	 2585.36
     47.2090	 3294.00	 3375.75	-2237.98	 2584.43
     47.2350	 3371.00	 3374.29	-2159.52	 2583.51
     47.2610	 3293.00	 3372.84	-2236.07	 2582.58
     47.2870	 3285.00	 3371.41	-2242.63	 2581.65
     47.3130	 3263.00	 3369.98	-2263.21	 2580.72
     47.3390	 3333.00	 3368.56	-2191.79	 2579.79
     47.3650	 3332.00	 3367.16	-2191.39	 2578.86
     47.3910	 3308.00	 3365.77	-2213.99	 2577.94
     47.4170	 3359.00	 3364.39	-2161.61	 2577.01
     47.4430	 3291.00	 3363.02	-2228.24	 2576.08
     47.4690	 3351.00	 3361.66	-2166.88	 2575.15
     47.4950	 3334.00	 3360.31	-2182.53	 2574.22
     47.5210	 3340.00	 3358.97	-2175.19	 2573.29
     47.5470	 3255.00	 3357.64	-2258.86	 2572.37
     47.5730	 3306.00	 3356.32	-2206.54	 2571.44
     47.5990	 3377.00	 3355.01	-2134.23	 2570.51
     47.6250	 3363.00	 3353.71	-2146.93	 2569.58
     47.6510	 3350.00	 3352.42	-2158.64	 2568.65
     47.6770	 3366.00	 3351.14	-2141.36	 2567.72
     47.7030	 3338.00	 3349.86	-2168.09	 2566.80
     47.7290	 3297.00	 3348.60	-2207.83	 2565.87
     47.7550	 3327.00	 3347.35	-2176.57	 2564.94
     47.7810	 3343.00	 3346.10	-2159.33	 2564.01
     47.8070	 3274.00	 3344.87	-2227.09	 2563.08
     47.8330	 3295.00	 3343.64	-2204.86	 2562.15
     47.8590	 3246.00	 3342.42	-2252.64	 2561.23
     47.8850	 3203.00	 3341.21	-2294.43	 2560.30
     47.9110	 3318.00	 3340.00	-2178.23	 2559.37
     47.9370	 3320.00	 3338.81	-2175.04	 2558.44
     47.9630	 3245.00	 3337.62	-2248.85	 2557.51
     47.9890	 3276.00	 3336.45	-2216.67	 2556.58
     48.0150	 3352.00	 3335.62	-2139.84	 2556.00
     48.0410	 3334.00	 3335.33	-2157.55	 2555.94
     48.0670	 3432.00	 3335.04	-2059.27	 2555.88
     48.0930	 3392.00	 3334.77	-2098.99	 2555.83
     48.1190	 3220.00	 3334.50	-2270.73	 2555.77
     48.1450	 3280.00	 3334.24	-2210.47	 2555.71
     48.1710	 3347.00	 3333.99	-2143.21	 2555.65
     48.1970	 3300.00	 3333.74	-2189.97	 2555.60
     48.2230	 3243.00	 3333.51	-2246.73	 2555.54
     48.2490	 3240.00	 3333.28	-2249.50	 2555.48
     48.2750	 3254.00	 3333.05	-2235.28	 2555.43
     48.3010	 3254.00	 3332.84	-2235.06	 2555.37
     48.3270	 3297.00	 3332.63	-2191.85	 2555.31
     48.3530	 3302.00	 3332.43	-2186.65	 2555.25
     48.3790	 3307.00	 3332.23	-2181.46	 2555.20
     48.4050	 3294.00	 3332.05	-2194.27	 2555.14
     48.4310	 3242.00	 3331.87	-2246.09	 2555.08
     48.4570	 3256.00	 3331.70	-2231.92	 2555.02
     48.4830	 3292.00	 3331.53	-2195.76	 2554.97
     48.5090	 3312.00	 3331.37	-2175.60	 2554.91
     48.5350	 3285.00	 3331.22	-2202.45	 2554.85
     48.5610	 3284.00	 3331.08	-2203.30	 2554.80
     48.5870	 3287.00	 3330.94	-2200.17	 2554.74
     48.6130	 3335.00	 3330.81	-2152.03	 2554.68
     48.6390	 3300.00	 3330.69	-2186.91	 2554.62
     48.6650	 3317.00	 3330.57	-2169.80	 2554.57
     48.6910	 3301.00	 3330.46	-2185.69	 2554.51
     48.7170	 3290.00	 3330.36	-2196.58	 2554.45
     48.7430	 3239.00	 3330.26	-2247.49	 2554.39
     48.7690	 3235.00	 3330.17	-2251.40	 2554.34
     48.7950	 3212.00	 3330.09	-2274.32	 2554.28
     48.8210	 3255.00	 3330.02	-2231.24	 2554.22
     48.8470	 3271.00	 3329.95	-2215.17	 2554.17
     48.8730	 3241.00	 3329.89	-2245.11	 2554.11
     48.8990	 3219.00	 3329.83	-2267.06	 2554.05
     48.9250	 3179.00	 3329.79	-2307.01	 2553.99
     48.9510	 3339.00	 3329.74	-2146.97	 2553.94
     48.9770	 3320.00	 3329.71	-2165.94	 2553.88
     49.0030	 3247.00	 3329.69	-2238.91	 2553.82
     49.0290	 3253.00	 3329.67	-2232.89	 2553.77
     49.0550	 3218.00	 3329.65	-2267.88	 2553.71
     49.0810	 3218.00	 3329.65	-2267.88	 2553.65
     49.1070	 3399.00	 3329.65	-2086.88	 2553.59
     49.1330	 3216.00	 3329.66	-2269.89	 2553.54
     49.1590	 3264.00	 3329.68	-2221.90	 2553.48
     49.1850	 3312.00	 3329.70	-2173.93	 2553.42
     49.2110	 3318.00	 3329.73	-2167.96	 2553.36
     49.2370	 3312.00	 3329.77	-2174.00	 2553.31
     49.2630	 3240.00	 3329.82	-2246.04	 2553.25
     49.2890	 3403.00	 3329.87	-2083.10	 2553.19
     49.3150	 3355.00	 3329.93	-2131.16	 2553.14
     49.3410	 3317.00	 3330.00	-2169.23	 2553.08
     49.3670	 3214.00	 3330.08	-2272.30	 2553.02
     49.3930	 3213.00	 3330.16	-2273.39	 2552.96
     49.4190	 3306.00	 3330.25	-2180.48	 2552.91
     49.4450	 3331.00	 3330.35	-2155.58	 2552.85
     49.4710	 3327.00	 3330.46	-2159.69	 2552.79
     49.4970	 3267.00	 3330.58	-2219.80	 2552.73
     49.5230	 3337.00	 3330.70	-2149.93	 2552.68
     49.5490	 3417.00	 3330.83	-2070.06	 2552.62
     49.5750	 3370.00	 3330.97	-2117.20	 2552.56
     49.6010	 3403.00	 3331.12	-2084.35	 2552.51
     49.6270	 3337.00	 3331.28	-2150.50	 2552.45
     49.6530	 3436.00	 3331.44	-2051.67	 2552.39
     49.6790	 3410.00	 3331.62	-2077.84	 2552.33
     49.7050	 3453.00	 3331.80	-2035.03	 2552.28
     49.7310	 3211.00	 3331.99	-2277.22	 2552.22
     49.7570	 3320.00	 3332.20	-2168.42	 2552.16
     49.7830	 3356.00	 3332.41	-2132.63	 2552.10
     49.8090	 3290.00	 3332.63	-2198.85	 2552.05
     49.8350	 3335.00	 3332.85	-2154.08	 2551.99
     49.8610	 3401.00	 3333.09	-2088.32	 2551.93
     49.8870	 3358.00	 3333.34	-2131.57	 2551.88
     49.9130	 3251.00	 3333.60	-2238.83	 2551.82
     49.9390	 3337.00	 3333.87	-2153.09	 2551.76
     49.9650	 3266.00	 3334.15	-2224.37	 2551.70
     49.9910	 3374.00	 3334.44	-2116.66	 2551.65
     50.0170	 3446.00	 3334.74	-2044.96	 2551.59
     50.0430	 3348.00	 3335.05	-2143.27	 2551.53
     50.0690	 3262.00	 3335.37	-2229.59	 2551.47
     50.0950	 3307.00	 3335.70	-2184.93	 2551.42
     50.1210	 3274.00	 3336.09	-2218.32	 2551.41
     50.1470	 3365.00	 3336.51	-2127.73	 2551.41
     50.1730	 3335.00	 3336.93	-2158.16	 2551.41
     50.1990	 3282.00	 3337.37	-2211.59	 2551.41
     50.2250	 3345.00	 3337.82	-2149.04	 2551.41
     50.2510	 3335.00	 3338.28	-2159.50	 2551.41
     50.2770	 3341.00	 3338.75	-2153.98	 2551.41
     50.3030	 3304.00	 3339.24	-2191.46	 2551.41
     50.3290	 3266.00	 3339.74	-2229.96	 2551.41
     50.3550	 3307.00	 3340.25	-2189.48	 2551.41
     50.3810	 3363.00	 3340.78	-2134.00	 2551.41
     50.4070	 3412.00	 3341.32	-2085.54	 2551.41
     50.4330	 3368.00	 3341.87	-2130.10	 2551.41
     50.4590	 3292.00	 3342.44	-2206.67	 2551.41
     50.4850	 3378.00	 3343.03	-2121.25	 2551.41
     50.5110	 3365.00	 3343.63	-2134.85	 2551.41
     50.5370	 3384.00	 3344.24	-2116.47	 2551.41
     50.5630	 3352.00	 3344.88	-2149.10	 2551.41
     50.5890	 3336.00	 3345.53	-2165.75	 2551.41
     50.6150	 3403.00	 3346.19	-2099.42	 2551.41
     50.6410	 3384.00	 3346.87	-2119.10	 2551.41
     50.6670	 3323.00	 3347.57	-2180.80	 2551.41
     50.6930	 3261.00	 3348.29	-2243.52	 2551.41
     50.7190	 3289.00	 3349.03	-2216.25	 2551.41
     50.7450	 3354.00	 3349.78	-2152.01	 2551.41
     50.7710	 3363.00	 3350.56	-2143.78	 2551.41
     50.7970	 3381.00	 3351.35	-2126.58	 2551.41
     50.8230	 3395.00	 3352.17	-2113.40	 2551.41
     50.8490	 3382.00	 3353.01	-2127.23	 2551.41
     50.8750	 3380.00	 3353.86	-2130.09	 2551.41
     50.9010	 3373.00	 3354.74	-2137.97	 2551.41
     50.9270	 3379.00	 3355.65	-2132.87	 2551.41
     50.9530	 3431.00	 3356.57	-2081.80	 2551.41
     50.9790	 3426.00	 3357.52	-2087.75	 2551.41
     51.0050	 3346.00	 3358.50	-2168.72	 2551.41
     51.0310	 3359.00	 3359.50	-2156.72	 2551.41
     51.0570	 3427.00	 3360.52	-2089.75	 2551.41
     51.0830	 3401.00	 3361.57	-2116.80	 2551.41
     51.1090	 3372.00	 3362.65	-2146.88	 2551.41
     51.1350	 3366.00	 3363.76	-2153.99	 2551.41
     51.1610	 3377.00	 3364.90	-2144.12	 2551.41
     51.1870	 3403.00	 3366.07	-2119.29	 2551.41
     51.2130	 3414.00	 3367.26	-2109.49	 2551.41
     51.2390	 3435.00	 3368.49	-2089.72	 2551.41
     51.2650	 3478.00	 3369.75	-2047.98	 2551.41
     51.2910	 3465.00	 3371.05	-2062.28	 2551.41
     51.3170	 3419.00	 3372.38	-2109.61	 2551.41
     51.3430	 3423.00	 3373.74	-2106.97	 2551.41
     51.3690	 3413.00	 3375.15	-2118.37	 2551.41
     51.3950	 3391.00	 3376.59	-2141.81	 2551.41
     51.4210	 3495.00	 3378.07	-2039.29	 2551.41
     51.4470	 3433.00	 3379.58	-2102.81	 2551.41
     51.4730	 3444.00	 3381.15	-2093.37	 2551.41
     51.4990	 3490.00	 3382.75	-2048.97	 2551.41
     51.5250	 3424.00	 3384.40	-2116.62	 2551.41
     51.5510	 3476.00	 3386.09	-2066.31	 2551.41
     51.5770	 3465.00	 3387.83	-2079.05	 2551.41
     51.6030	 3455.00	 3389.61	-2090.84	 2551.41
     51.6290	 3423.00	 3391.45	-2124.68	 2551.41
     51.6550	 3474.00	 3393.34	-2075.57	 2551.41
     51.6810	 3440.00	 3395.28	-2111.51	 2551.41
     51.7070	 3473.00	 3397.28	-2080.51	 2551.41
     51.7330	 3481.00	 3399.33	-2074.56	 2551.41
     51.7590	 3504.00	 3401.45	-2053.67	 2551.41
     51.7850	 3459.00	 3403.62	-2100.84	 2551.41
     51.8110	 3398.00	 3405.85	-2164.08	 2551.41
     51.8370	 3460.00	 3408.15	-2104.38	 2551.41
     51.8630	 3401.00	 3410.52	-2165.74	 2551.41
     51.8890	 3412.00	 3412.95	-2157.18	 2551.41
     51.9150	 3523.00	 3415.46	-2048.68	 2551.41
     51.9410	 3432.00	 3418.03	-2142.26	 2551.41
     51.9670	 3348.00	 3420.69	-2228.91	 2551.41
     51.9930	 3372.00	 3423.41	-2207.64	 2551.41
     52.0190	 3401.00	 3426.22	-2181.45	 2551.41
     52.0450	 3470.00	 3429.12	-2115.34	 2551.41
     52.0710	 3396.00	 3432.09	-2192.32	 2551.41
     52.0970	 3424.00	 3435.16	-2167.39	 2551.41
     52.1230	 3481.00	 3438.32	-2113.54	 2551.41
     52.1490	 3503.00	 3441.56	-2094.79	 2551.41
     52.1750	 3546.00	 3444.91	-2055.13	 2551.41
     52.2010	 3434.00	 3448.35	-2170.58	 2551.41
     52.2270	 3562.00	 3451.89	-2046.12	 2551.41
     52.2530	 3442.00	 3455.54	-2169.77	 2551.41
     52.2790	 3436.00	 3459.30	-2179.52	 2551.41
     52.3050	 3461.00	 3463.16	-2158.39	 2551.41
     52.3310	 3465.00	 3467.14	-2158.36	 2551.41
     52.3570	 3512.00	 3471.23	-2115.45	 2551.41
     52.3830	 3417.00	 3475.44	-2214.66	 2551.41
     52.4090	 3495.00	 3479.76	-2140.99	 2551.41
     52.4350	 3540.00	 3484.22	-2100.44	 2551.41
     52.4610	 3523.00	 3488.79	-2122.02	 2551.41
     52.4870	 3501.00	 3493.49	-2148.72	 2551.41
     52.5130	 3514.00	 3498.33	-2140.55	 2551.41
     52.5390	 3531.00	 3503.29	-2128.51	 2551.41
     52.5650	 3436.00	 3508.38	-2228.61	 2551.41
     52.5910	 3483.00	 3513.60	-2186.83	 2551.41
     52.6170	 3554.00	 3518.96	-2121.19	 2551.41
     52.6430	 3463.00	 3524.45	-2217.68	 2551.41
     52.6690	 3547.00	 3530.08	-2139.30	 2551.41
     52.6950	 3533.00	 3535.83	-2159.06	 2551.41
     52.7210	 3566.00	 3541.72	-2131.94	 2551.41
     52.7470	 3518.00	 3547.73	-2185.96	 2551.41
     52.7730	 3561.00	 3553.87	-2149.09	 2551.41
     52.7990	 3600.00	 3560.12	-2116.35	 2551.41
     52.8250	 3660.00	 3566.49	-2062.72	 2551.41
     52.8510	 3602.00	 3572.97	-2127.20	 2551.41
     52.8770	 3668.00	 3579.65	-2067.88	 2551.51
     52.9030	 3603.00	 3586.49	-2139.71	 2551.67
     52.9290	 3562.00	 3593.40	-2187.63	 2551.83
     52.9550	 3584.00	 3600.39	-2172.62	 2551.99
     52.9810	 3649.00	 3607.44	-2114.66	 2552.15
     53.0070	 3608.00	 3614.53	-2162.75	 2552.31
     53.0330	 3584.00	 3621.65	-2193.88	 2552.47
     53.0590	 3577.00	 3628.78	-2208.01	 2552.63
     53.0850	 3596.00	 3635.90	-2196.13	 2552.79
     53.1110	 3644.00	 3643.00	-2155.22	 2552.95
     53.1370	 3622.00	 3650.04	-2184.27	 2553.11
     53.1630	 3615.00	 3657.02	-2198.24	 2553.27
     53.1890	 3562.00	 3663.89	-2258.11	 2553.43
     53.2150	 3578.00	 3670.64	-2248.86	 2553.59
     53.2410	 3613.00	 3677.23	-2220.46	 2553.75
     53.2670	 3567.00	 3683.65	-2272.87	 2553.91
     53.2930	 3556.00	 3689.86	-2290.08	 2554.07
     53.3190	 3661.00	 3695.83	-2191.06	 2554.23
     53.3450	 3716.00	 3701.54	-2141.76	 2554.39
     53.3710	 3659.00	 3706.96	-2204.18	 2554.55
     53.3970	 3659.00	 3712.05	-2209.28	 2554.71
     53.4230	 3675.00	 3716.80	-2198.03	 2554.87
     53.4490	 3622.00	 3721.18	-2255.41	 2555.03
     53.4750	 3621.00	 3725.17	-2260.40	 2555.19
     53.5010	 3629.00	 3728.75	-2255.98	 2555.35
     53.5270	 3642.00	 3731.90	-2246.13	 2555.51
     53.5530	 3658.00	 3734.61	-2232.83	 2555.67
     53.5790	 3644.00	 3736.86	-2249.08	 2555.83
     53.6050	 3686.00	 3738.65	-2208.87	 2555.99
     53.6310	 3678.00	 3739.97	-2218.19	 2556.15
     53.6570	 3669.00	 3740.83	-2228.05	 2556.31
     53.6830	 3672.00	 3741.22	-2225.45	 2556.48
     53.7090	 3667.00	 3741.16	-2230.38	 2556.64
     53.7350	 3711.00	 3740.65	-2185.88	 2556.80
     53.7610	 3656.00	 3739.71	-2239.94	 2556.96
     53.7870	 3639.00	 3738.36	-2255.59	 2557.12
     53.8130	 3648.00	 3736.61	-2244.84	 2557.28
     53.8390	 3687.00	 3734.49	-2203.72	 2557.44
     53.8650	 3643.00	 3732.03	-2245.25	 2557.60
     53.8910	 3678.00	 3729.24	-2207.47	 2557.76
     53.9170	 3642.00	 3726.16	-2240.39	 2557.92
     53.9430	 3654.00	 3722.81	-2225.04	 2558.08
     53.9690	 3726.00	 3719.23	-2149.46	 2558.24
     53.9950	 3683.00	 3715.44	-2188.67	 2558.40
     54.0210	 3693.00	 3711.47	-2174.70	 2558.56
     54.0470	 3683.00	 3707.36	-2180.58	 2558.72
     54.0730	 3680.00	 3703.12	-2179.35	 2558.88
     54.0990	 3667.00	 3698.80	-2188.02	 2559.04
     54.1250	 3614.00	 3694.40	-2236.63	 2559.20
     54.1510	 3782.00	 3689.97	-2064.20	 2559.36
     54.1770	 3768.00	 3685.52	-2073.75	 2559.52
     54.2030	 3704.00	 3681.08	-2133.30	 2559.68
     54.2290	 3691.00	 3676.66	-2141.89	 2559.84
     54.2550	 3685.00	 3672.29	-2143.51	 2560.00
     54.2810	 3720.00	 3667.98	-2104.21	 2560.16
     54.3070	 3831.00	 3663.76	-1988.98	 2560.32
     54.3330	 3681.00	 3659.63	-2134.85	 2560.48
     54.3590	 3640.00	 3655.60	-2171.83	 2560.64
     54.3850	 3698.00	 3651.70	-2109.93	 2560.80
     54.4110	 3609.00	 3647.93	-2195.16	 2560.96
     54.4370	 3673.00	 3644.31	-2127.53	 2561.12
     54.4630	 3667.00	 3640.83	-2130.05	 2561.28
     54.4890	 3642.00	 3637.51	-2151.73	 2561.44
     54.5150	 3773.00	 3634.35	-2017.58	 2561.60
     54.5410	 3688.00	 3631.36	-2099.59	 2561.76
     54.5670	 3582.00	 3628.55	-2202.77	 2561.92
     54.5930	 3678.00	 3625.91	-2104.14	 2562.08
     54.6190	 3651.00	 3623.46	-2128.68	 2562.24
     54.6450	 3659.00	 3621.18	-2118.41	 2562.40
     54.6710	 3700.00	 3619.10	-2075.32	 2562.56
     54.6970	 3714.00	 3617.20	-2059.43	 2562.72
     54.7230	 3705.00	 3615.49	-2066.72	 2562.88
     54.7490	 3674.00	 3613.97	-2096.20	 2563.04
     54.7750	 3651.00	 3612.65	-2117.87	 2563.20
     54.8010	 3743.00	 3611.51	-2024.74	 2563.36
     54.8270	 3688.00	 3610.57	-2078.80	 2563.53
     54.8530	 3662.00	 3609.82	-2104.05	 2563.69
     54.8790	 3552.00	 3609.27	-2213.49	 2563.85
     54.9050	 3737.00	 3608.91	-2028.13	 2564.01
     54.9310	 3697.00	 3608.63	-2067.85	 2564.17
     54.9570	 3643.00	 3608.66	-2121.88	 2564.33
     54.9830	 3732.00	 3608.82	-2033.05	 2564.49
     55.0090	 3635.00	 3609.24	-2130.46	 2564.65
     55.0350	 3841.00	 3609.85	-1925.08	 2564.81
     55.0610	 3711.00	 3610.66	-2055.89	 2564.97
     55.0870	 3754.00	 3611.66	-2013.89	 2565.13
     55.1130	 3829.00	 3612.87	-1940.09	 2565.29
     55.1390	 3740.00	 3614.27	-2030.49	 2565.45
     55.1650	 3646.00	 3615.87	-2126.09	 2565.61
     55.1910	 3664.00	 3617.67	-2109.90	 2565.77
     55.2170	 3677.00	 3619.67	-2098.90	 2565.93
     55.2430	 3682.00	 3621.88	-2096.11	 2566.09
     55.2690	 3726.00	 3624.29	-2054.52	 2566.25
     55.2950	 3790.00	 3626.91	-1993.14	 2566.41
     55.3210	 3715.00	 3629.74	-2070.97	 2566.57
     55.3470	 3728.00	 3632.78	-2061.01	 2566.73
     55.3730	 3725.00	 3636.04	-2067.27	 2566.89
     55.3990	 3750.00	 3639.51	-2045.74	 2567.05
     55.4250	 3823.00	 3643.21	-1976.43	 2567.21
     55.4510	 3714.00	 3647.12	-2089.35	 2567.37
     55.4770	 3771.00	 3651.27	-2036.49	 2567.53
     55.5030	 3886.00	 3655.64	-1925.87	 2567.69
     55.5290	 3869.00	 3660.25	-1947.48	 2567.85
     55.5550	 3760.00	 3665.10	-2061.32	 2568.01
     55.5810	 3808.00	 3670.19	-2018.41	 2568.17
     55.6070	 3869.00	 3675.52	-1962.75	 2568.33
     55.6330	 3780.00	 3681.11	-2057.33	 2568.49
     55.6590	 3748.00	 3686.95	-2095.18	 2568.65
     55.6850	 3777.00	 3693.05	-2072.28	 2568.81
     55.7110	 3823.00	 3699.42	-2032.65	 2568.97
     55.7370	 3791.00	 3706.06	-2071.28	 2569.13
     55.7630	 3762.00	 3712.97	-2107.20	 2569.29
     55.7890	 3806.00	 3720.16	-2070.39	 2569.45
     55.8150	 3814.00	 3727.64	-2069.87	 2569.61
     55.8410	 3810.00	 3735.41	-2081.64	 2569.77
     55.8670	 3809.00	 3743.47	-2090.70	 2569.93
     55.8930	 3792.00	 3751.84	-2116.06	 2570.09
     55.9190	 3780.00	 3760.51	-2136.73	 2570.25
     55.9450	 3846.00	 3769.48	-2079.71	 2570.41
     55.9710	 3934.00	 3778.78	-2001.00	 2570.58
     55.9970	 3929.00	 3788.39	-2015.61	 2570.74
     56.0230	 3901.00	 3798.32	-2053.54	 2570.90
     56.0490	 3893.00	 3808.57	-2071.79	 2571.06
     56.0750	 3904.00	 3819.15	-2071.37	 2571.22
     56.1010	 3956.00	 3830.05	-2030.28	 2571.38
     56.1270	 3905.00	 3841.29	-2092.51	 2571.54
     56.1530	 3866.00	 3852.85	-2143.08	 2571.70
     56.1790	 3939.00	 3864.74	-2081.96	 2571.86
     56.2050	 3980.00	 3876.95	-2053.17	 2572.02
     56.2310	 3969.00	 3889.48	-2076.71	 2572.18
     56.2570	 3897.00	 3902.32	-2161.55	 2572.34
     56.2830	 3890.00	 3915.47	-2181.70	 2572.50
     56.3090	 3990.00	 3928.91	-2095.14	 2572.66
     56.3350	 3987.00	 3942.64	-2111.87	 2572.82
     56.3610	 3995.00	 3956.64	-2117.86	 2572.98
     56.3870	 4098.00	 3970.89	-2029.12	 2573.14
     56.4130	 3980.00	 3985.38	-2161.60	 2573.30
     56.4390	 3967.00	 4000.07	-2189.30	 2573.46
     56.4650	 3996.00	 4014.95	-2175.18	 2573.62
     56.4910	 3974.00	 4030.00	-2212.22	 2573.78
     56.5170	 3986.00	 4045.16	-2215.39	 2573.94
     56.5430	 4076.00	 4060.41	-2140.64	 2574.10
     56.5690	 4105.00	 4075.72	-2126.94	 2574.26
     56.5950	 4109.00	 4091.03	-2138.25	 2574.42
     56.6210	 4114.00	 4106.80	-2149.03	 2575.09
     56.6470	 4138.00	 4122.65	-2140.87	 2575.91
     56.6730	 4006.00	 4138.35	-2288.57	 2576.74
     56.6990	 4048.00	 4153.85	-2262.07	 2577.57
     56.7250	 4254.00	 4169.08	-2071.31	 2578.39
     56.7510	 4097.00	 4183.99	-2243.22	 2579.22
     56.7770	 4053.00	 4198.51	-2301.73	 2580.04
     56.8030	 3988.00	 4212.57	-2380.80	 2580.87
     56.8290	 4090.00	 4226.11	-2292.33	 2581.69
     56.8550	 4155.00	 4239.04	-2240.27	 2582.52
     56.8810	 4057.00	 4251.32	-2350.55	 2583.35
     56.9070	 4113.00	 4262.87	-2306.10	 2584.17
     56.9330	 4204.00	 4273.62	-2225.85	 2585.00
     56.9590	 4150.00	 4283.51	-2289.74	 2585.82
     56.9850	 4280.00	 4292.49	-2168.71	 2586.65
     57.0110	 4211.00	 4300.49	-2245.72	 2587.47
     57.0370	 4223.00	 4307.47	-2240.70	 2588.30
     57.0630	 4224.00	 4313.39	-2245.62	 2589.13
     57.0890	 4077.00	 4318.21	-2397.44	 2589.95
     57.1150	 4145.00	 4321.90	-2333.13	 2590.78
     57.1410	 4195.00	 4324.44	-2285.67	 2591.60
     57.1670	 4244.00	 4325.83	-2238.05	 2592.43
     57.1930	 4130.00	 4326.04	-2352.27	 2593.26
     57.2190	 4329.00	 4325.10	-2152.33	 2594.08
     57.2450	 4217.00	 4323.02	-2262.24	 2594.91
     57.2710	 4241.00	 4319.81	-2235.03	 2595.73
     57.2970	 4219.00	 4315.50	-2252.73	 2596.56
     57.3230	 4408.00	 4310.14	-2058.37	 2597.38
     57.3490	 4316.00	 4303.76	-2143.99	 2598.21
     57.3750	 4260.00	 4296.42	-2192.65	 2599.04
     57.4010	 4210.00	 4288.17	-2234.40	 2599.86
     57.4270	 4178.00	 4279.07	-2257.30	 2600.69
     57.4530	 4081.00	 4269.19	-2344.41	 2601.51
     57.4790	 4118.00	 4258.58	-2296.80	 2602.34
     57.5050	 4169.00	 4247.31	-2234.54	 2603.17
     57.5310	 4110.00	 4235.46	-2281.68	 2603.99
     57.5570	 4169.00	 4223.08	-2210.31	 2604.82
     57.5830	 4144.00	 4210.26	-2222.48	 2605.64
     57.6090	 4091.00	 4197.05	-2262.27	 2606.47
     57.6350	 4212.00	 4183.51	-2127.74	 2607.29
     57.6610	 4160.00	 4169.72	-2165.94	 2608.12
     57.6870	 4070.00	 4155.73	-2241.95	 2608.95
     57.7130	 4164.00	 4141.59	-2133.82	 2609.77
     57.7390	 4084.00	 4127.36	-2199.59	 2610.60
     57.7650	 4025.00	 4113.10	-2244.32	 2611.42
     57.7910	 4091.00	 4098.83	-2164.06	 2612.25
     57.8170	 4103.00	 4084.61	-2137.84	 2613.08
     57.8430	 4028.00	 4070.48	-2198.71	 2613.90
     57.8690	 4038.00	 4056.47	-2174.70	 2614.73
     57.8950	 4019.00	 4042.62	-2179.84	 2615.55
     57.9210	 4141.00	 4028.94	-2044.16	 2616.38
     57.9470	 4165.00	 4015.47	-2006.69	 2617.20
     57.9730	 4088.00	 4002.22	-2070.45	 2618.03
     57.9990	 3993.00	 3989.22	-2152.45	 2618.86
     58.0250	 4056.00	 3976.48	-2076.71	 2619.68
     58.0510	 4078.00	 3964.02	-2042.25	 2620.51
     58.0770	 4028.00	 3951.85	-2080.07	 2621.33
     58.1030	 4123.00	 3939.97	-1973.19	 2622.16
     58.1290	 4057.00	 3928.39	-2027.62	 2622.98
     58.1550	 3964.00	 3917.12	-2109.35	 2623.81
     58.1810	 4069.00	 3906.17	-1993.39	 2624.64
     58.2070	 4047.00	 3895.53	-2004.75	 2625.46
     58.2330	 3956.00	 3885.20	-2085.43	 2626.29
     58.2590	 3932.00	 3875.19	-2099.41	 2627.11
     58.2850	 3986.00	 3865.49	-2035.72	 2627.94
     58.3110	 3956.00	 3856.11	-2056.33	 2628.77
     58.3370	 3963.00	 3847.03	-2040.25	 2629.59
     58.3630	 3991.00	 3838.26	-2003.48	 2630.42
     58.3890	 3994.00	 3829.79	-1992.02	 2631.24
     58.4150	 3999.00	 3821.62	-1978.84	 2632.07
     58.4410	 3949.00	 3813.74	-2020.96	 2632.89
     58.4670	 3916.00	 3806.15	-2046.37	 2633.72
     58.4930	 3866.00	 3798.84	-2089.06	 2634.55
     58.5190	 3772.00	 3791.80	-2176.03	 2635.37
     58.5450	 3813.00	 3785.04	-2128.26	 2636.20
     58.5710	 3844.00	 3778.54	-2090.76	 2637.02
     58.5970	 3849.00	 3772.30	-2079.52	 2637.85
     58.6230	 3884.00	 3766.31	-2038.53	 2638.68
     58.6490	 3943.00	 3760.57	-1973.79	 2639.50
     58.6750	 3900.00	 3755.07	-2011.29	 2640.33
     58.7010	 3805.00	 3749.80	-2101.03	 2641.15
     58.7270	 3812.00	 3744.76	-2088.99	 2641.98
     58.7530	 3869.00	 3739.95	-2027.18	 2642.80
     58.7790	 3812.00	 3735.34	-2079.57	 2643.62
     58.8050	 3750.00	 3730.63	-2136.85	 2644.11
     58.8310	 3786.00	 3726.11	-2096.34	 2644.60
     58.8570	 3782.00	 3721.81	-2096.03	 2645.09
     58.8830	 3786.00	 3717.69	-2087.92	 2645.58
     58.9090	 3795.00	 3713.77	-2075.00	 2646.07
     58.9350	 3788.00	 3710.04	-2078.27	 2646.56
     58.9610	 3735.00	 3706.49	-2127.72	 2647.05
     58.9870	 3753.00	 3703.12	-2106.34	 2647.54
     59.0130	 3773.00	 3699.92	-2083.15	 2648.04
     59.0390	 3716.00	 3696.89	-2137.12	 2648.53
     59.0650	 3763.00	 3694.03	-2087.25	 2649.02
     59.0910	 3789.00	 3691.33	-2058.55	 2649.51
     59.1170	 3804.00	 3688.79	-2041.01	 2650.00
     59.1430	 3715.00	 3686.40	-2127.63	 2650.49
     59.1690	 3734.00	 3684.16	-2106.39	 2650.98
     59.1950	 3777.00	 3682.08	-2061.30	 2651.47
     59.2210	 3707.00	 3680.14	-2129.36	 2651.96
     59.2470	 3702.00	 3678.34	-2132.56	 2652.45
     59.2730	 3718.00	 3676.68	-2114.91	 2652.94
     59.2990	 3613.00	 3675.16	-2218.38	 2653.43
     59.3250	 3702.00	 3673.77	-2128.00	 2653.92
     59.3510	 3732.00	 3672.52	-2096.74	 2654.41
     59.3770	 3713.00	 3671.40	-2114.62	 2654.91
     59.4030	 3576.00	 3670.40	-2250.63	 2655.40
     59.4290	 3672.00	 3669.53	-2153.76	 2655.89
     59.4550	 3718.00	 3668.79	-2107.02	 2656.38
     59.4810	 3582.00	 3668.17	-2242.40	 2656.87
     59.5070	 3639.00	 3667.67	-2184.90	 2657.36
     59.5330	 3664.00	 3667.29	-2159.52	 2657.85
     59.5590	 3710.00	 3667.04	-2113.26	 2658.34
     59.5850	 3770.00	 3666.90	-2053.12	 2658.83
     59.6110	 3714.00	 3666.87	-2109.10	 2659.32
     59.6370	 3637.00	 3666.97	-2186.19	 2659.81
     59.6630	 3567.00	 3667.17	-2256.40	 2660.30
     59.6890	 3670.00	 3667.50	-2153.72	 2660.79
     59.7150	 3658.00	 3667.93	-2166.16	 2661.28
     59.7410	 3592.00	 3668.49	-2232.71	 2661.78
     59.7670	 3573.00	 3668.82	-2252.04	 2661.93
     59.7930	 3513.00	 3668.88	-2312.10	 2661.70
     59.8190	 3543.00	 3669.05	-2282.27	 2661.47
     59.8450	 3661.00	 3669.33	-2164.56	 2661.24
     59.8710	 3713.00	 3669.73	-2112.95	 2661.01
     59.8970	 3715.00	 3670.24	-2111.46	 2660.78
     59.9230	 3545.00	 3670.86	-2282.09	 2660.55
     59.9490	 3565.00	 3671.60	-2262.83	 2660.32
     59.9750	 3527.00	 3672.46	-2301.69	 2660.08
     60.0010	 3626.00	 3673.43	-2203.66	 2659.85
     60.0270	 3573.00	 3674.52	-2257.75	 2659.62
     60.0530	 3522.00	 3675.73	-2309.96	 2659.39
     60.0790	 3582.00	 3677.06	-2251.28	 2659.16
     60.1050	 3574.00	 3678.50	-2260.73	 2658.93
     60.1310	 3490.00	 3680.07	-2346.30	 2658.70
     60.1570	 3522.00	 3681.77	-2315.99	 2658.47
     60.1830	 3486.00	 3683.58	-2353.81	 2658.24
     60.2090	 3412.00	 3685.53	-2429.75	 2658.00
     60.2350	 3486.00	 3687.60	-2357.82	 2657.77
     60.2610	 3625.00	 3689.80	-2221.03	 2657.54
     60.2870	 3395.00	 3692.14	-2453.36	 2657.31
     60.3130	 3485.00	 3694.61	-2365.83	 2657.08
     60.3390	 3410.00	 3697.21	-2443.44	 2656.85
     60.3650	 3384.00	 3699.96	-2472.18	 2656.62
     60.3910	 3345.00	 3702.85	-2514.07	 2656.39
     60.4170	 3526.00	 3705.88	-2336.11	 2656.16
     60.4430	 3574.00	 3709.06	-2291.29	 2655.92
     60.4690	 3517.00	 3712.40	-2351.62	 2655.69
     60.4950	 3484.00	 3715.89	-2388.11	 2655.46
     60.5210	 3544.00	 3719.53	-2331.76	 2655.23
     60.5470	 3488.00	 3723.34	-2391.57	 2655.00
     60.5730	 3419.00	 3727.31	-2464.54	 2654.77
     60.5990	 3449.00	 3731.46	-2438.68	 2654.54
     60.6250	 3471.00	 3735.77	-2421.00	 2654.31
     60.6510	 3604.00	 3740.27	-2292.49	 2654.08
     60.6770	 3524.00	 3744.94	-2377.17	 2653.84
     60.7030	 3542.00	 3749.81	-2364.03	 2653.61
     60.7290	 3507.00	 3754.86	-2404.09	 2653.38
     60.7550	 3531.00	 3760.12	-2385.34	 2653.15
     60.7810	 3513.00	 3765.57	-2408.80	 2652.92
     60.8070	 3541.00	 3771.23	-2386.46	 2652.69
     60.8330	 3543.00	 3777.11	-2390.34	 2652.46
     60.8590	 3563.00	 3783.21	-2376.43	 2652.23
     60.8850	 3524.00	 3789.53	-2421.76	 2652.00
     60.9110	 3473.00	 3796.08	-2479.31	 2651.76
     60.9370	 3522.00	 3802.88	-2437.10	 2651.53
     60.9630	 3546.00	 3809.91	-2420.14	 2651.30
     60.9890	 3614.00	 3817.20	-2359.43	 2651.07
     61.0150	 3594.00	 3824.75	-2386.98	 2650.84
     61.0410	 3540.00	 3832.57	-2448.79	 2650.61
     61.0670	 3573.00	 3840.66	-2423.89	 2650.38
     61.0930	 3546.00	 3849.03	-2459.26	 2650.15
     61.1190	 3522.00	 3857.69	-2491.92	 2649.92
     61.1450	 3522.00	 3866.66	-2500.88	 2649.68
     61.1710	 3518.00	 3875.92	-2514.15	 2649.45
     61.1970	 3473.00	 3885.51	-2568.73	 2649.22
     61.2230	 3585.00	 3895.41	-2466.64	 2648.99
     61.2490	 3579.00	 3905.65	-2482.88	 2648.76
     61.2750	 3511.00	 3916.23	-2561.46	 2648.53
     61.3010	 3558.00	 3927.17	-2525.39	 2648.30
     61.3270	 3559.00	 3938.46	-2535.68	 2648.07
     61.3530	 3580.00	 3950.11	-2526.34	 2647.84
     61.3790	 3597.00	 3962.15	-2521.38	 2647.60
     61.4050	 3593.00	 3974.58	-2537.80	 2647.37
     61.4310	 3566.00	 3987.39	-2577.62	 2647.14
     61.4570	 3557.00	 4000.61	-2599.84	 2646.91
     61.4830	 3634.00	 4014.25	-2536.47	 2646.68
     61.5090	 3654.00	 4028.30	-2530.53	 2646.45
     61.5350	 3605.00	 4042.78	-2594.01	 2646.22
     61.5610	 3609.00	 4057.70	-2604.93	 2645.99
     61.5870	 3649.00	 4073.06	-2580.28	 2645.76
     61.6130	 3669.00	 4088.86	-2576.09	 2645.52
     61.6390	 3682.00	 4105.11	-2579.34	 2645.29
     61.6650	 3643.00	 4121.83	-2635.05	 2645.06
     61.6910	 3608.00	 4138.99	-2687.22	 2644.83
     61.7170	 3717.00	 4156.62	-2595.85	 2644.60
     61.7430	 3777.00	 4174.71	-2553.93	 2644.37
     61.7690	 3797.00	 4193.25	-2552.47	 2644.14
     61.7950	 3781.00	 4212.25	-2587.47	 2643.91
     61.8210	 3795.00	 4231.69	-2592.92	 2643.68
     61.8470	 3863.00	 4251.57	-2544.80	 2643.44
     61.8730	 3835.00	 4271.88	-2593.11	 2643.21
     61.8990	 3935.00	 4292.61	-2513.83	 2642.98
     61.9250	 3927.00	 4313.73	-2542.95	 2642.75
     61.9510	 4002.00	 4335.22	-2489.45	 2642.52
     61.9770	 4042.00	 4357.07	-2471.30	 2642.29
     62.0030	 4133.00	 4379.25	-2402.47	 2642.06
     62.0290	 4203.00	 4401.71	-2354.94	 2641.83
     62.0550	 4165.00	 4424.43	-2415.66	 2641.60
     62.0810	 4238.00	 4447.37	-2365.60	 2641.36
     62.1070	 4293.00	 4470.47	-2333.70	 2641.13
     62.1330	 4472.00	 4493.69	-2177.92	 2640.90
     62.1590	 4521.00	 4516.97	-2152.19	 2640.67
     62.1850	 4528.00	 4540.25	-2168.47	 2640.44
     62.2110	 4556.00	 4563.45	-2163.68	 2640.21
     62.2370	 4762.00	 4586.52	-1980.74	 2639.98
     62.2630	 4919.00	 4609.36	-1846.59	 2639.75
     62.2890	 4885.00	 4631.91	-1903.14	 2639.52
     62.3150	 4866.00	 4654.07	-1944.29	 2639.28
     62.3410	 5020.00	 4675.75	-1811.97	 2639.05
     62.3670	 5164.00	 4696.86	-1689.08	 2638.82
     62.3930	 5027.00	 4717.30	-1846.52	 2638.59
     62.4190	 5256.00	 4736.97	-1637.20	 2638.36
     62.4450	 5347.00	 4755.78	-1565.00	 2638.13
     62.4710	 5498.00	 4773.62	-1431.85	 2637.90
     62.4970	 5452.00	 4790.40	-1494.63	 2637.67
     62.5230	 5501.00	 4806.02	-1461.24	 2637.44
     62.5490	 5682.00	 4820.38	-1294.60	 2637.21
     62.5750	 5587.00	 4833.40	-1402.62	 2636.97
     62.6010	 5732.00	 4844.99	-1269.22	 2636.74
     62.6270	 5765.00	 4855.08	-1246.31	 2636.51
     62.6530	 5966.00	 4863.60	-1053.83	 2636.28
     62.6790	 6019.00	 4870.49	-1007.72	 2636.05
     62.7050	 6011.00	 4875.71	-1020.93	 2635.82
     62.7310	 5964.00	 4879.20	-1071.43	 2635.59
     62.7570	 5933.00	 4880.96	-1104.18	 2635.36
     62.7830	 6146.00	 4880.95	 -891.18	 2635.13
     62.8090	 6030.00	 4879.18	-1005.41	 2634.89
     62.8350	 6074.00	 4875.66	 -957.89	 2634.66
     62.8610	 6131.00	 4870.41	 -895.64	 2634.43
     62.8870	 5973.00	 4863.46	-1046.68	 2634.20
     62.9130	 6018.00	 4854.85	 -993.07	 2633.97
     62.9390	 5911.00	 4844.64	-1089.86	 2633.74
     62.9650	 5851.00	 4832.89	-1138.11	 2633.51
     62.9910	 5866.00	 4819.66	-1109.89	 2633.28
     63.0170	 5899.00	 4805.05	-1062.28	 2633.05
     63.0430	 5991.00	 4789.14	 -954.36	 2632.81
     63.0690	 5820.00	 4772.01	-1108.24	 2632.58
     63.0950	 5700.00	 4753.76	-1209.99	 2632.35
     63.1210	 5685.00	 4734.49	-1205.72	 2632.12
     63.1470	 5719.00	 4714.29	-1151.52	 2631.89
     63.1730	 5590.00	 4693.27	-1259.49	 2631.66
     63.1990	 5509.00	 4671.51	-1318.74	 2631.43
     63.2250	 5320.00	 4649.13	-1485.36	 2631.20
     63.2510	 5281.00	 4626.21	-1501.44	 2630.97
     63.2770	 5224.00	 4602.85	-1535.07	 2630.73
     63.3030	 5140.00	 4579.12	-1595.35	 2630.50
     63.3290	 5110.00	 4555.13	-1601.35	 2630.27
     63.3550	 4989.00	 4530.94	-1698.17	 2630.04
     63.3810	 4861.00	 4506.63	-1801.86	 2629.81
     63.4070	 4864.00	 4482.28	-1774.50	 2629.58
     63.4330	 4829.00	 4457.93	-1785.16	 2629.35
     63.4590	 4716.00	 4433.67	-1873.89	 2629.12
     63.4850	 4628.00	 4409.53	-1937.76	 2628.89
     63.5110	 4560.00	 4385.57	-1981.80	 2628.65
     63.5370	 4469.00	 4361.83	-2049.06	 2628.42
     63.5630	 4373.00	 4338.36	-2121.58	 2628.19
     63.5890	 4380.00	 4315.18	-2091.40	 2627.96
     63.6150	 4245.00	 4292.33	-2203.55	 2627.73
     63.6410	 4136.00	 4269.83	-2290.05	 2627.50
     63.6670	 4158.00	 4247.71	-2245.93	 2627.27
     63.6930	 4123.00	 4225.98	-2259.21	 2627.04
     63.7190	 4078.00	 4204.67	-2282.89	 2626.81
     63.7450	 3990.00	 4183.78	-2350.00	 2626.57
     63.7710	 3938.00	 4163.32	-2381.55	 2626.34
     63.7970	 3880.00	 4143.31	-2419.53	 2626.11
     63.8230	 3780.00	 4123.74	-2499.97	 2625.88
     63.8490	 3790.00	 4104.62	-2470.85	 2625.65
     63.8750	 3815.00	 4085.96	-2427.18	 2625.42
     63.9010	 3789.00	 4067.74	-2434.97	 2625.19
     63.9270	 3829.00	 4049.97	-2377.20	 2624.96
     63.9530	 3861.00	 4032.65	-2327.88	 2624.73
     63.9790	 3810.00	 4015.77	-2362.00	 2624.49
     64.0050	 3733.00	 3999.32	-2422.55	 2624.26
     64.0310	 3709.00	 3983.32	-2430.54	 2624.03
     64.0570	 3667.00	 3967.72	-2456.95	 2623.80
     64.0830	 3600.00	 3952.55	-2508.78	 2623.57
     64.1090	 3650.00	 3937.78	-2444.01	 2623.34
     64.1350	 3679.00	 3923.42	-2400.64	 2623.11
     64.1610	 3620.00	 3909.44	-2445.67	 2622.88
     64.1870	 3581.00	 3895.85	-2471.07	 2622.65
     64.2130	 3558.00	 3882.63	-2480.85	 2622.41
     64.2390	 3588.00	 3869.78	-2438.00	 2622.18
     64.2650	 3664.00	 3857.28	-2349.50	 2621.95
     64.2910	 3641.00	 3845.12	-2360.35	 2621.72
     64.3170	 3667.00	 3833.31	-2322.53	 2621.49
     64.3430	 3626.00	 3821.82	-2352.04	 2621.26
     64.3690	 3536.00	 3810.64	-2430.87	 2621.03
     64.3950	 3605.00	 3799.78	-2351.01	 2620.80
     64.4210	 3556.00	 3789.22	-2389.45	 2620.57
     64.4470	 3589.00	 3778.95	-2346.18	 2620.33
     64.4730	 3563.00	 3768.96	-2362.19	 2620.10
     64.4990	 3528.00	 3759.25	-2387.48	 2619.87
     64.5250	 3563.00	 3749.80	-2343.03	 2619.64
     64.5510	 3521.00	 3740.62	-2375.84	 2619.41
     64.5770	 3594.00	 3731.68	-2293.90	 2619.18
     64.6030	 3649.00	 3722.98	-2230.21	 2618.95
     64.6290	 3547.00	 3714.52	-2323.75	 2618.72
     64.6550	 3500.00	 3706.29	-2362.52	 2618.49
     64.6810	 3495.00	 3698.28	-2359.50	 2618.25
     64.7070	 3504.00	 3690.48	-2342.71	 2618.02
     64.7330	 3586.00	 3682.89	-2253.12	 2617.79
     64.7590	 3518.00	 3675.50	-2313.72	 2617.56
     64.7850	 3513.00	 3668.30	-2311.53	 2617.33
     64.8110	 3457.00	 3661.29	-2360.52	 2617.10
     64.8370	 3481.00	 3654.47	-2329.70	 2616.87
     64.8630	 3461.00	 3647.82	-2343.05	 2616.64
     64.8890	 3509.00	 3641.34	-2288.57	 2616.41
     64.9150	 3479.00	 3635.03	-2312.26	 2616.17
     64.9410	 3492.00	 3628.88	-2293.10	 2615.94
     64.9670	 3487.00	 3622.88	-2292.11	 2615.71
     64.9930	 3449.00	 3617.04	-2324.26	 2615.48
     65.0190	 3401.00	 3611.33	-2366.56	 2615.25
     65.0450	 3454.00	 3605.78	-2308.00	 2615.02
     65.0710	 3477.00	 3600.35	-2279.58	 2614.79
     65.0970	 3484.00	 3595.06	-2267.29	 2614.56
     65.1230	 3482.00	 3589.90	-2264.13	 2614.33
     65.1490	 3441.00	 3584.87	-2300.09	 2614.09
     65.1750	 3389.00	 3579.95	-2347.18	 2613.86
     65.2010	 3376.00	 3575.15	-2355.38	 2613.63
     65.2270	 3366.00	 3570.47	-2360.69	 2613.40
     65.2530	 3484.00	 3565.89	-2238.12	 2613.17
     65.2790	 3432.00	 3561.42	-2285.65	 2612.94
     65.3050	 3432.00	 3557.06	-2281.29	 2612.71
     65.3310	 3370.00	 3552.79	-2339.02	 2612.48
     65.3570	 3452.00	 3548.63	-2252.85	 2612.25
     65.3830	 3417.00	 3544.55	-2283.78	 2612.02
     65.4090	 3461.00	 3540.57	-2235.80	 2611.78
     65.4350	 3391.00	 3536.68	-2301.91	 2611.55
     65.4610	 3406.00	 3532.88	-2283.10	 2611.32
     65.4870	 3294.00	 3529.15	-2391.38	 2611.09
     65.5130	 3512.00	 3525.51	-2169.74	 2610.86
     65.5390	 3399.00	 3521.95	-2279.18	 2610.63
     65.5650	 3367.00	 3518.47	-2307.69	 2610.40
     65.5910	 3377.00	 3515.06	-2294.28	 2610.17
     65.6170	 3359.00	 3511.72	-2308.95	 2609.94
     65.6430	 3452.00	 3508.45	-2212.68	 2609.70
     65.6690	 3442.00	 3505.25	-2219.48	 2609.47
     65.6950	 3340.00	 3502.12	-2318.35	 2609.24
     65.7210	 3405.00	 3499.05	-2250.28	 2609.01
     65.7470	 3326.00	 3496.05	-2326.27	 2608.78
     65.7730	 3400.00	 3493.10	-2249.33	 2608.55
     65.7990	 3441.00	 3490.22	-2205.45	 2608.32
     65.8250	 3377.00	 3487.39	-2266.62	 2608.09
     65.8510	 3404.00	 3484.62	-2236.85	 2607.86
     65.8770	 3452.00	 3481.91	-2186.13	 2607.62
     65.9030	 3432.00	 3479.24	-2203.47	 2607.39
     65.9290	 3406.00	 3476.63	-2226.86	 2607.16
     65.9550	 3509.00	 3474.07	-2121.30	 2606.93
     65.9810	 3518.00	 3471.56	-2109.79	 2606.70
     66.0070	 3346.00	 3469.10	-2279.32	 2606.47
     66.0330	 3369.00	 3466.68	-2253.91	 2606.24
     66.0590	 3348.00	 3464.31	-2272.54	 2606.01
     66.0850	 3443.00	 3461.98	-2175.21	 2605.78
     66.1110	 3426.00	 3459.70	-2189.93	 2605.54
     66.1370	 3422.00	 3457.46	-2191.68	 2605.31
     66.1630	 3399.00	 3455.26	-2212.48	 2605.08
     66.1890	 3474.00	 3453.10	-2135.32	 2604.85
     66.2150	 3481.00	 3450.97	-2126.20	 2604.62
     66.2410	 3397.00	 3448.89	-2208.11	 2604.39
     66.2670	 3380.00	 3446.84	-2223.07	 2604.16
     66.2930	 3481.00	 3444.83	-2120.06	 2603.93
     66.3190	 3333.00	 3442.85	-2266.08	 2603.70
     66.3450	 3312.00	 3440.91	-2285.14	 2603.46
     66.3710	 3386.00	 3439.00	-2209.23	 2603.23
     66.3970	 3412.00	 3437.13	-2181.35	 2603.00
     66.4230	 3382.00	 3435.28	-2209.51	 2602.77
     66.4490	 3355.00	 3433.47	-2234.70	 2602.54
     66.4750	 3417.00	 3431.69	-2170.92	 2602.31
     66.5010	 3368.00	 3429.94	-2218.16	 2602.08
     66.5270	 3399.00	 3428.22	-2185.44	 2601.85
     66.5530	 3412.00	 3426.52	-2170.75	 2601.62
     66.5790	 3351.00	 3424.86	-2230.08	 2601.38
     66.6050	 3429.00	 3423.22	-2150.44	 2601.15
     66.6310	 3483.00	 3421.60	-2094.83	 2600.92
     66.6570	 3405.00	 3420.02	-2171.24	 2600.69
     66.6830	 3306.00	 3418.45	-2268.68	 2600.46
     66.7090	 3345.00	 3416.92	-2228.14	 2600.23
     66.7350	 3382.00	 3415.41	-2189.63	 2600.00
     66.7610	 3331.00	 3413.92	-2239.14	 2599.77
     66.7870	 3338.00	 3412.45	-2230.68	 2599.54
     66.8130	 3375.00	 3411.01	-2192.23	 2599.30
     66.8390	 3398.00	 3409.59	-2167.81	 2599.07
     66.8650	 3360.00	 3408.19	-2204.42	 2598.84
     66.8910	 3314.00	 3406.81	-2249.04	 2598.61
     66.9170	 3359.00	 3405.46	-2202.68	 2598.38
     66.9430	 3353.00	 3404.12	-2207.35	 2598.15
     66.9690	 3306.00	 3402.81	-2253.03	 2597.92
     66.9950	 3281.00	 3401.51	-2276.74	 2597.69
     67.0210	 3362.00	 3400.23	-2194.46	 2597.46
     67.0470	 3375.00	 3398.98	-2180.20	 2597.22
     67.0730	 3344.00	 3397.74	-2209.96	 2596.99
     67.0990	 3394.00	 3396.52	-2158.74	 2596.76
     67.1250	 3363.00	 3395.31	-2188.54	 2596.53
     67.1510	 3443.00	 3394.13	-2107.35	 2596.30
     67.1770	 3403.00	 3392.96	-2146.19	 2596.07
     67.2030	 3408.00	 3391.81	-2140.03	 2595.84
     67.2290	 3365.00	 3390.67	-2181.90	 2595.61
     67.2550	 3324.00	 3389.56	-2221.78	 2595.38
     67.2810	 3367.00	 3388.45	-2177.68	 2595.14
     67.3070	 3376.00	 3387.37	-2167.59	 2594.91
     67.3330	 3423.00	 3386.30	-2119.52	 2594.68
     67.3590	 3423.00	 3385.24	-2118.47	 2594.45
     67.3850	 3380.00	 3384.20	-2160.43	 2594.22
     67.4110	 3336.00	 3383.17	-2203.40	 2593.99
     67.4370	 3269.00	 3382.16	-2269.39	 2593.76
     67.4630	 3333.00	 3381.16	-2204.39	 2593.53
     67.4890	 3306.00	 3380.18	-2230.41	 2593.30
     67.5150	 3320.00	 3379.21	-2215.44	 2593.06
     67.5410	 3295.00	 3378.25	-2239.48	 2592.83
     67.5670	 3329.00	 3377.31	-2204.54	 2592.60
     67.5930	 3467.00	 3376.38	-2065.61	 2592.37
     67.6190	 3420.00	 3375.00	-2111.23	 2592.14
     67.6450	 3357.00	 3374.10	-2173.33	 2591.91
     67.6710	 3280.00	 3373.21	-2249.44	 2591.68
     67.6970	 3352.00	 3372.33	-2176.56	 2591.45
     67.7230	 3335.00	 3371.24	-2192.46	 2591.22
     67.7490	 3409.00	 3370.38	-2117.61	 2590.98
     67.7750	 3367.00	 3369.54	-2158.77	 2590.75
     67.8010	 3350.00	 3368.73	-2174.96	 2590.55
     67.8270	 3390.00	 3367.99	-2134.22	 2590.39
     67.8530	 3330.00	 3367.26	-2193.49	 2590.23
     67.8790	 3378.00	 3366.54	-2144.77	 2590.08
     67.9050	 3374.00	 3365.83	-2148.06	 2589.92
     67.9310	 3303.00	 3365.14	-2218.36	 2589.77
     67.9570	 3332.00	 3364.45	-2188.67	 2589.61
     67.9830	 3312.00	 3363.77	-2208.00	 2589.46
     68.0090	 3236.00	 3363.11	-2283.33	 2589.30
     68.0350	 3318.00	 3362.45	-2200.68	 2589.15
     68.0610	 3162.00	 3361.81	-2356.04	 2588.99
     68.0870	 3305.00	 3361.18	-2212.40	 2588.83
     68.1130	 3365.00	 3360.56	-2151.78	 2588.68
     68.1390	 3384.00	 3359.94	-2132.17	 2588.52
     68.1650	 3292.00	 3359.34	-2223.57	 2588.37
     68.1910	 3225.00	 3358.75	-2289.98	 2588.21
     68.2170	 3222.00	 3358.17	-2292.40	 2588.06
     68.2430	 3342.00	 3357.60	-2171.82	 2587.90
     68.2690	 3357.00	 3357.04	-2156.26	 2587.74
     68.2950	 3360.00	 3356.49	-2152.71	 2587.59
     68.3210	 3287.00	 3355.95	-2225.17	 2587.43
     68.3470	 3269.00	 3355.41	-2242.64	 2587.28
     68.3730	 3271.00	 3354.89	-2240.12	 2587.12
     68.3990	 3266.00	 3354.38	-2244.61	 2586.97
     68.4250	 3303.00	 3353.88	-2207.10	 2586.81
     68.4510	 3313.00	 3353.39	-2196.61	 2586.66
     68.4770	 3272.00	 3352.91	-2237.13	 2586.50
     68.5030	 3324.00	 3352.43	-2184.66	 2586.34
     68.5290	 3350.00	 3351.97	-2158.20	 2586.19
     68.5550	 3293.00	 3351.52	-2214.74	 2586.03
     68.5810	 3354.00	 3351.07	-2153.30	 2585.88
     68.6070	 3359.00	 3350.64	-2147.87	 2585.72
     68.6330	 3329.00	 3350.22	-2177.44	 2585.57
     68.6590	 3384.00	 3349.80	-2122.03	 2585.41
     68.6850	 3343.00	 3349.40	-2162.63	 2585.26
     68.7110	 3372.00	 3349.01	-2133.23	 2585.10
     68.7370	 3383.00	 3348.62	-2121.85	 2584.94
     68.7630	 3312.00	 3348.25	-2192.48	 2584.79
     68.7890	 3338.00	 3347.89	-2166.11	 2584.63
     68.8150	 3409.00	 3347.53	-2094.76	 2584.48
     68.8410	 3325.00	 3347.19	-2178.42	 2584.32
     68.8670	 3299.00	 3346.86	-2204.08	 2584.17
     68.8930	 3322.00	 3346.54	-2180.76	 2584.01
     68.9190	 3289.00	 3346.22	-2213.45	 2583.86
     68.9450	 3323.00	 3345.92	-2179.15	 2583.70
     68.9710	 3362.00	 3345.63	-2139.86	 2583.54
     68.9970	 3329.00	 3345.35	-2172.58	 2583.39
     69.0230	 3407.00	 3345.08	-2094.31	 2583.23
     69.0490	 3427.00	 3344.82	-2074.05	 2583.08
     69.0750	 3347.00	 3344.58	-2153.80	 2582.92
     69.1010	 3367.00	 3344.34	-2133.57	 2582.77
     69.1270	 3422.00	 3344.11	-2078.34	 2582.61
     69.1530	 3394.00	 3343.90	-2106.13	 2582.46
     69.1790	 3383.00	 3343.70	-2116.93	 2582.30
     69.2050	 3413.00	 3343.51	-2086.74	 2582.14
     69.2310	 3428.00	 3343.33	-2071.56	 2581.99
     69.2570	 3409.00	 3343.17	-2090.39	 2581.83
     69.2830	 3392.00	 3343.02	-2107.24	 2581.68
     69.3090	 3415.00	 3342.88	-2084.10	 2581.52
     69.3350	 3449.00	 3342.75	-2049.97	 2581.37
     69.3610	 3471.00	 3342.63	-2027.86	 2581.21
     69.3870	 3368.00	 3342.53	-2130.76	 2581.05
     69.4130	 3270.00	 3342.45	-2228.67	 2580.90
     69.4390	 3307.00	 3342.37	-2191.60	 2580.74
     69.4650	 3341.00	 3342.31	-2157.54	 2580.59
     69.4910	 3344.00	 3342.27	-2154.49	 2580.43
     69.5170	 3376.00	 3342.23	-2122.46	 2580.28
     69.5430	 3357.00	 3342.22	-2141.44	 2580.12
     69.5690	 3317.00	 3342.22	-2181.44	 2579.97
     69.5950	 3337.00	 3342.23	-2161.46	 2579.81
     69.6210	 3349.00	 3342.26	-2149.48	 2579.65
     69.6470	 3381.00	 3342.30	-2117.53	 2579.50
     69.6730	 3386.00	 3342.36	-2112.59	 2579.34
     69.6990	 3374.00	 3342.44	-2124.67	 2579.19
     69.7250	 3362.00	 3342.54	-2136.76	 2579.03
     69.7510	 3327.00	 3342.65	-2171.87	 2578.88
     69.7770	 3341.00	 3342.78	-2158.00	 2578.72
     69.8030	 3373.00	 3342.92	-2126.15	 2578.57
     69.8290	 3375.00	 3343.09	-2124.31	 2578.41
     69.8550	 3360.00	 3343.27	-2139.49	 2578.25
     69.8810	 3306.00	 3343.47	-2193.69	 2578.10
     69.9070	 3263.00	 3343.69	-2236.91	 2577.94
     69.9330	 3339.00	 3343.93	-2161.15	 2577.79
     69.9590	 3327.00	 3344.18	-2173.41	 2577.63
     69.9850	 3319.00	 3344.46	-2181.68	 2577.48
     70.0110	 3322.00	 3344.75	-2178.98	 2577.32
     70.0370	 3304.00	 3345.07	-2197.29	 2577.17
     70.0630	 3274.00	 3345.40	-2227.63	 2577.01
     70.0890	 3343.00	 3345.76	-2158.98	 2576.85
     70.1150	 3318.00	 3346.13	-2184.36	 2576.70
     70.1410	 3298.00	 3346.53	-2204.75	 2576.54
     70.1670	 3260.00	 3346.94	-2243.17	 2576.39
     70.1930	 3296.00	 3347.38	-2207.60	 2576.23
     70.2190	 3332.00	 3347.83	-2172.05	 2576.08
     70.2450	 3239.00	 3348.30	-2265.53	 2575.92
     70.2710	 3333.00	 3348.79	-2172.02	 2575.77
     70.2970	 3249.00	 3349.30	-2256.53	 2575.61
     70.3230	 3279.00	 3349.83	-2227.05	 2575.45
     70.3490	 3375.00	 3350.37	-2131.60	 2575.30
     70.3750	 3352.00	 3350.93	-2155.16	 2575.14
     70.4010	 3324.00	 3351.51	-2183.73	 2574.99
     70.4270	 3409.00	 3352.10	-2099.32	 2574.83
     70.4530	 3347.00	 3352.70	-2161.93	 2574.68
     70.4790	 3323.00	 3353.32	-2186.54	 2574.52
     70.5050	 3340.00	 3353.94	-2170.17	 2574.36
     70.5310	 3335.00	 3354.58	-2175.80	 2574.21
     70.5570	 3351.00	 3355.22	-2160.44	 2574.05
     70.5830	 3225.00	 3355.87	-2287.09	 2573.90
     70.6090	 3379.00	 3356.52	-2133.74	 2573.74
     70.6350	 3323.00	 3357.17	-2190.39	 2573.59
     70.6610	 3254.00	 3357.82	-2260.04	 2573.43
     70.6870	 3327.00	 3358.46	-2187.69	 2573.28
     70.7130	 3279.00	 3359.10	-2236.32	 2573.12
     70.7390	 3354.00	 3359.73	-2161.95	 2572.96
     70.7650	 3343.00	 3360.34	-2173.57	 2572.81
     70.7910	 3281.00	 3360.94	-2236.17	 2572.65
     70.8170	 3324.00	 3361.52	-2193.75	 2572.50
     70.8430	 3302.00	 3362.08	-2216.30	 2572.34
     70.8690	 3380.00	 3362.61	-2138.84	 2572.19
     70.8950	 3294.00	 3363.11	-2225.34	 2572.03
     70.9210	 3334.00	 3363.59	-2185.81	 2571.88
     70.9470	 3360.00	 3364.02	-2160.25	 2571.72
     70.9730	 3288.00	 3364.42	-2232.65	 2571.56
     70.9990	 3341.00	 3364.78	-2180.00	 2571.41
     71.0250	 3376.00	 3365.09	-2145.31	 2571.25
     71.0510	 3438.00	 3365.35	-2083.58	 2571.10
     71.0770	 3410.00	 3365.57	-2111.80	 2570.94
     71.1030	 3402.00	 3365.73	-2119.96	 2570.79
     71.1290	 3437.00	 3365.85	-2085.07	 2570.63
     71.1550	 3368.00	 3365.90	-2154.13	 2570.48
     71.1810	 3348.00	 3365.91	-2174.13	 2570.32
     71.2070	 3354.00	 3365.85	-2168.08	 2570.16
     71.2330	 3379.00	 3365.74	-2142.97	 2570.01
     71.2590	 3349.00	 3365.57	-2172.80	 2569.85
     71.2850	 3311.00	 3365.35	-2210.57	 2569.70
     71.3110	 3239.00	 3365.07	-2282.29	 2569.54
     71.3370	 3379.00	 3364.73	-2141.96	 2569.39
     71.3630	 3365.00	 3364.35	-2155.57	 2569.23
     71.3890	 3402.00	 3363.91	-2118.13	 2569.08
     71.4150	 3448.00	 3363.42	-2071.65	 2568.92
     71.4410	 3401.00	 3362.89	-2118.11	 2568.76
     71.4670	 3397.00	 3362.31	-2121.53	 2568.61
     71.4930	 3333.00	 3361.69	-2184.91	 2568.45
     71.5190	 3324.00	 3361.03	-2193.26	 2568.30
     71.5450	 3403.00	 3360.34	-2113.56	 2568.14
     71.5710	 3433.00	 3359.61	-2082.84	 2567.99
     71.5970	 3384.00	 3358.86	-2131.09	 2567.83
     71.6230	 3297.00	 3358.08	-2217.31	 2567.67
     71.6490	 3373.00	 3357.03	-2140.25	 2567.26
     71.6750	 3444.00	 3354.61	-2066.84	 2565.51
     71.7010	 3378.00	 3352.18	-2130.41	 2563.75
     71.7270	 3383.00	 3349.74	-2122.96	 2562.00
     71.7530	 3455.00	 3347.29	-2048.51	 2560.24
     71.7790	 3450.00	 3344.83	-2051.06	 2558.49
     71.8050	 3412.00	 3342.38	-2086.60	 2556.74
     71.8310	 3373.00	 3339.92	-2123.15	 2554.98
     71.8570	 3333.00	 3337.47	-2160.69	 2553.23
     71.8830	 3321.00	 3335.02	-2170.25	 2551.47
     71.9090	 3350.00	 3332.58	-2138.81	 2549.72
     71.9350	 3354.00	 3330.16	-2132.38	 2547.97
     71.9610	 3354.00	 3327.74	-2129.97	 2546.21
     71.9870	 3441.00	 3325.34	-2040.57	 2544.46
     72.0130	 3468.00	 3322.96	-2011.19	 2542.70
     72.0390	 3410.00	 3320.60	-2066.82	 2540.95
     72.0650	 3297.00	 3318.25	-2177.48	 2539.19
     72.0910	 3247.00	 3315.93	-2225.16	 2537.44
     72.1170	 3354.00	 3313.63	-2115.86	 2535.69
     72.1430	 3400.00	 3311.36	-2067.58	 2533.93
     72.1690	 3407.00	 3309.10	-2058.33	 2532.18
     72.1950	 3407.00	 3306.88	-2056.10	 2530.42
     72.2210	 3394.00	 3304.68	-2066.90	 2528.67
     72.2470	 3354.00	 3302.51	-2104.73	 2526.92
     72.2730	 3321.00	 3300.36	-2135.59	 2525.16
     72.2990	 3328.00	 3298.25	-2126.47	 2523.41
     72.3250	 3323.00	 3296.16	-2129.38	 2521.65
     72.3510	 3333.00	 3294.10	-2117.33	 2519.90
     72.3770	 3248.00	 3292.07	-2200.30	 2518.15
     72.4030	 3241.00	 3290.08	-2205.30	 2516.39
     72.4290	 3345.00	 3288.11	-2099.34	 2514.64
     72.4550	 3282.00	 3286.18	-2160.40	 2512.88
     72.4810	 3266.00	 3284.27	-2174.50	 2511.13
     72.5070	 3246.00	 3282.40	-2192.63	 2509.37
     72.5330	 3280.00	 3280.56	-2156.79	 2507.62
     72.5590	 3309.00	 3278.75	-2125.98	 2505.87
     72.5850	 3245.00	 3276.98	-2188.20	 2504.11
     72.6110	 3282.00	 3275.23	-2149.46	 2502.36
     72.6370	 3271.00	 3273.52	-2158.75	 2500.60
     72.6630	 3346.00	 3271.84	-2082.07	 2498.85
     72.6890	 3277.00	 3270.20	-2149.42	 2497.09
     72.7150	 3255.00	 3268.59	-2169.81	 2495.34
     72.7410	 3249.00	 3267.01	-2174.23	 2493.59
     72.7670	 3308.00	 3265.46	-2113.69	 2491.83
     72.7930	 3299.00	 3263.95	-2121.18	 2490.08
     72.8190	 3203.00	 3262.47	-2215.70	 2488.32
     72.8450	 3228.00	 3261.03	-2189.26	 2486.57
     72.8710	 3220.00	 3259.62	-2195.85	 2484.82
     72.8970	 3255.00	 3258.25	-2159.47	 2483.06
     72.9230	 3289.00	 3256.91	-2124.13	 2481.31
     72.9490	 3269.00	 3255.60	-2142.83	 2479.55
     72.9750	 3309.00	 3254.33	-2101.56	 2477.80
     73.0010	 3239.00	 3253.10	-2170.33	 2476.05
     73.0270	 3150.00	 3251.90	-2258.13	 2474.29
     73.0530	 3258.00	 3250.74	-2148.96	 2472.54
     73.0790	 3274.00	 3249.61	-2131.84	 2470.78
     73.1050	 3264.00	 3248.52	-2140.74	 2469.03
     73.1310	 3376.00	 3247.46	-2027.69	 2467.27
     73.1570	 3336.00	 3246.44	-2066.66	 2465.52
     73.1830	 3274.00	 3245.45	-2127.68	 2463.77
     73.2090	 3232.00	 3244.50	-2168.73	 2462.01
     73.2350	 3230.00	 3243.59	-2169.81	 2460.26
     73.2610	 3289.00	 3242.71	-2109.93	 2458.50
     73.2870	 3361.00	 3241.86	-2037.09	 2456.75
     73.3130	 3207.00	 3241.05	-2190.28	 2455.00
     73.3390	 3159.00	 3240.28	-2237.50	 2453.24
     73.3650	 3277.00	 3239.53	-2118.76	 2451.49
     73.3910	 3223.00	 3238.82	-2172.05	 2449.73
     73.4170	 3265.00	 3238.15	-2129.37	 2447.98
     73.4430	 3363.00	 3237.50	-2030.72	 2446.22
     73.4690	 3222.00	 3236.88	-2171.11	 2444.47
     73.4950	 3298.00	 3236.29	-2094.52	 2442.72
     73.5210	 3298.00	 3235.73	-2093.96	 2440.96
     73.5470	 3393.00	 3233.46	-1996.68	 2439.21
     73.5730	 3265.00	 3232.95	-2124.17	 2437.45
     73.5990	 3248.00	 3232.46	-2140.69	 2435.70
     73.6250	 3265.00	 3232.00	-2123.22	 2433.95
     73.6510	 3276.00	 3230.69	-2110.91	 2432.19
     73.6770	 3322.00	 3230.26	-2064.48	 2430.44
     73.7030	 3321.00	 3229.84	-2065.07	 2428.68
     73.7290	 3241.00	 3229.44	-2144.66	 2426.93
     73.7550	 3154.00	 3229.04	-2231.27	 2425.17
     73.7810	 3173.00	 3228.65	-2211.88	 2423.42
     73.8070	 3187.00	 3228.26	-2197.49	 2421.67
     73.8330	 3156.00	 3227.87	-2228.10	 2419.91
     73.8590	 3236.00	 3227.48	-2147.70	 2418.16
     73.8850	 3319.00	 3227.08	-2064.30	 2416.40
     73.9110	 3303.00	 3226.66	-2079.89	 2414.65
     73.9370	 3194.00	 3226.24	-2188.46	 2412.90
     73.9630	 3108.00	 3225.79	-2274.02	 2411.14
     73.9890	 3155.00	 3225.32	-2226.55	 2409.39
     74.0150	 3246.00	 3224.83	-2135.06	 2407.63
     74.0410	 3260.00	 3224.31	-2120.54	 2405.88
     74.0670	 3252.00	 3223.76	-2127.99	 2404.13
     74.0930	 3181.00	 3223.18	-2198.40	 2402.37
     74.1190	 3193.00	 3222.56	-2185.78	 2400.62
     74.1450	 3162.00	 3221.90	-2216.12	 2398.86
     74.1710	 3111.00	 3221.20	-2266.42	 2397.11
     74.1970	 3138.00	 3220.45	-2238.68	 2395.35
     74.2230	 3161.00	 3219.66	-2214.89	 2393.60
     74.2490	 3129.00	 3218.82	-2246.05	 2391.85
     74.2750	 3148.00	 3217.94	-2226.16	 2390.09
     74.3010	 3191.00	 3217.01	-2182.23	 2388.34
     74.3270	 3211.00	 3216.03	-2161.25	 2386.58
     74.3530	 3215.00	 3215.00	-2156.22	 2384.83
     74.3790	 3240.00	 3213.92	-2130.14	 2383.08
     74.4050	 3246.00	 3212.79	-2123.02	 2381.32
     74.4310	 3197.00	 3211.61	-2170.84	 2379.57
     74.4570	 3180.00	 3210.39	-2186.62	 2377.81
     74.4830	 3208.00	 3209.12	-2157.35	 2376.06
     74.5090	 3172.00	 3207.81	-2192.04	 2374.30
     74.5350	 3127.00	 3206.45	-2235.68	 2372.55
     74.5610	 3139.00	 3205.05	-2222.28	 2370.80
     74.5870	 3099.00	 3203.61	-2260.83	 2369.04
     74.6130	 3091.00	 3202.12	-2267.35	 2367.29
     74.6390	 3167.00	 3200.60	-2189.82	 2365.53
     74.6650	 3161.00	 3199.03	-2194.26	 2363.78
     74.6910	 3111.00	 3197.43	-2242.66	 2362.03
     74.7170	 3083.00	 3195.79	-2269.02	 2360.27
     74.7430	 3124.00	 3194.11	-2226.34	 2358.52
     74.7690	 3185.00	 3192.39	-2163.62	 2356.76
     74.7950	 3149.00	 3190.64	-2197.86	 2355.01
     74.8210	 3206.00	 3188.84	-2139.07	 2353.26
     74.8470	 3150.00	 3187.01	-2193.23	 2351.50
     74.8730	 3140.00	 3185.13	-2201.36	 2349.75
     74.8990	 3154.00	 3183.22	-2185.44	 2347.99
     74.9250	 3166.00	 3181.26	-2171.48	 2346.24
     74.9510	 3177.00	 3178.95	-2158.17	 2344.18
     74.9770	 3126.00	 3176.39	-2206.62	 2341.92
     75.0030	 3139.00	 3173.79	-2191.02	 2339.66
     75.0290	 3124.00	 3171.14	-2203.37	 2337.41
     75.0550	 3156.00	 3168.44	-2168.66	 2335.15
     75.0810	 3122.00	 3165.68	-2199.91	 2332.89
     75.1070	 3180.00	 3162.87	-2139.09	 2330.63
     75.1330	 3212.00	 3160.00	-2104.23	 2328.38
     75.1590	 3028.00	 3157.07	-2285.30	 2326.12
     75.1850	 3174.00	 3154.09	-2136.31	 2323.86
     75.2110	 3230.00	 3151.04	-2077.27	 2321.61
     75.2370	 3197.00	 3147.94	-2107.16	 2319.35
     75.2630	 3136.00	 3144.77	-2164.99	 2317.09
     75.2890	 3191.00	 3141.54	-2106.76	 2314.84
     75.3150	 3086.00	 3138.25	-2208.47	 2312.58
     75.3410	 3106.00	 3134.90	-2185.12	 2310.32
     75.3670	 3087.00	 3131.49	-2200.71	 2308.06
     75.3930	 3177.00	 3128.02	-2107.25	 2305.81
     75.4190	 3135.00	 3124.50	-2145.72	 2303.55
     75.4450	 3152.00	 3120.92	-2125.15	 2301.29
     75.4710	 3083.00	 3117.29	-2190.52	 2299.04
     75.4970	 3064.00	 3113.61	-2205.84	 2296.78
     75.5230	 3077.00	 3109.89	-2189.12	 2294.52
     75.5490	 3016.00	 3106.12	-2246.35	 2292.27
     75.5750	 3002.00	 3102.32	-2256.54	 2290.01
     75.6010	 3026.00	 3098.48	-2228.70	 2287.75
     75.6270	 3048.00	 3094.60	-2202.83	 2285.50
     75.6530	 3032.00	 3090.70	-2214.93	 2283.24
     75.6790	 3117.00	 3086.77	-2126.00	 2280.98
     75.7050	 3069.00	 3082.82	-2170.05	 2278.72
     75.7310	 3136.00	 3078.86	-2099.08	 2276.47
     75.7570	 3014.00	 3074.88	-2217.10	 2274.21
     75.7830	 3070.00	 3070.88	-2157.11	 2271.95
     75.8090	 3123.00	 3066.89	-2100.11	 2269.70
     75.8350	 3055.00	 3062.89	-2164.11	 2267.44
     75.8610	 3013.00	 3058.89	-2202.11	 2265.18
     75.8870	 3046.00	 3054.89	-2165.11	 2262.93
     75.9130	 3073.00	 3050.89	-2134.12	 2260.67
     75.9390	 3013.00	 3046.91	-2190.13	 2258.41
     75.9650	 3016.00	 3042.94	-2183.16	 2256.15
     75.9910	 3014.00	 3038.98	-2181.20	 2253.90
     76.0170	 3047.00	 3035.03	-2144.26	 2251.64
     76.0430	 3109.00	 3031.10	-2078.33	 2249.38
     76.0690	 2994.00	 3027.20	-2189.42	 2247.13
     76.0950	 3045.00	 3023.31	-2134.54	 2244.87
     76.1210	 3011.00	 3019.45	-2164.67	 2242.61
     76.1470	 3082.00	 3015.60	-2089.83	 2240.36
     76.1730	 3075.00	 3011.79	-2093.01	 2238.10
     76.1990	 3080.00	 3008.00	-2084.22	 2235.84
     76.2250	 3115.00	 3004.23	-2045.46	 2233.59
     76.2510	 2988.00	 3000.49	-2168.72	 2231.33
     76.2770	 2973.00	 2996.78	-2180.01	 2229.07
     76.3030	 2960.00	 2993.10	-2189.33	 2226.81
     76.3290	 3014.00	 2989.45	-2131.67	 2224.56
     76.3550	 2922.00	 2985.82	-2220.05	 2222.30
     76.3810	 2960.00	 2982.22	-2178.45	 2220.04
     76.4070	 2961.00	 2978.65	-2173.88	 2217.79
     76.4330	 2938.00	 2975.11	-2193.34	 2215.53
     76.4590	 3036.00	 2971.60	-2091.82	 2213.27
     76.4850	 2948.00	 2968.11	-2176.34	 2211.02
     76.5110	 2944.00	 2964.66	-2176.88	 2208.76
     76.5370	 3099.00	 2961.23	-2018.45	 2206.50
     76.5630	 2998.00	 2957.82	-2116.05	 2204.24
     76.5890	 2928.00	 2954.45	-2182.67	 2201.99
     76.6150	 2933.00	 2951.10	-2174.32	 2199.73
     76.6410	 2973.00	 2947.77	-2131.00	 2197.47
     76.6670	 2976.00	 2944.45	-2124.68	 2195.19
     76.6930	 2953.00	 2940.99	-2144.21	 2192.74
     76.7190	 2907.00	 2937.54	-2186.77	 2190.29
     76.7450	 2936.00	 2934.13	-2154.35	 2187.84
     76.7710	 2929.00	 2930.73	-2157.96	 2185.40
     76.7970	 2896.00	 2927.36	-2187.59	 2182.95
     76.8230	 2903.00	 2924.01	-2177.24	 2180.50
     76.8490	 2927.00	 2920.69	-2149.91	 2178.05
     76.8750	 2919.00	 2917.38	-2154.61	 2175.60
     76.9010	 2900.00	 2914.10	-2170.32	 2173.15
     76.9270	 2902.00	 2910.83	-2165.06	 2170.70
     76.9530	 2913.00	 2907.59	-2150.81	 2168.25
     76.9790	 2870.00	 2904.36	-2190.59	 2165.80
     77.0050	 2850.00	 2901.15	-2207.38	 2163.35
     77.0310	 2860.00	 2897.97	-2194.19	 2160.90
     77.0570	 2864.00	 2894.80	-2187.02	 2158.46
     77.0830	 2919.00	 2891.64	-2128.87	 2156.01
     77.1090	 2885.00	 2888.51	-2159.73	 2153.56
     77.1350	 2850.00	 2885.38	-2191.61	 2151.11
     77.1610	 2879.00	 2882.28	-2159.51	 2148.66
     77.1870	 2881.00	 2879.19	-2154.42	 2146.21
     77.2130	 2854.00	 2876.12	-2178.34	 2143.76
     77.2390	 2852.00	 2873.06	-2177.29	 2141.31
     77.2650	 2890.00	 2870.01	-2136.24	 2138.86
     77.2910	 2851.00	 2866.98	-2172.21	 2136.41
     77.3170	 2844.00	 2863.97	-2176.19	 2133.96
     77.3430	 2799.00	 2860.96	-2218.19	 2131.52
     77.3690	 2827.00	 2857.97	-2187.19	 2129.07
     77.3950	 2861.00	 2854.99	-2150.21	 2126.62
     77.4210	 2884.00	 2852.02	-2124.25	 2124.17
     77.4470	 2839.00	 2849.07	-2166.29	 2121.72
     77.4730	 2855.00	 2846.12	-2147.35	 2119.27
     77.4990	 2851.00	 2843.19	-2148.41	 2116.82
     77.5250	 2819.00	 2840.26	-2177.49	 2114.37
     77.5510	 2815.00	 2837.35	-2178.58	 2111.92
     77.5770	 2878.00	 2834.45	-2112.68	 2109.47
     77.6030	 2864.00	 2831.56	-2123.78	 2107.02
     77.6290	 2897.00	 2828.67	-2087.90	 2104.58
     77.6550	 2920.00	 2825.80	-2062.03	 2102.13
     77.6810	 2823.00	 2822.94	-2156.16	 2099.68
     77.7070	 2856.00	 2820.08	-2120.31	 2097.23
     77.7330	 2887.00	 2817.23	-2086.46	 2094.78
     77.7590	 2825.00	 2814.39	-2145.62	 2092.33
     77.7850	 2833.00	 2811.56	-2134.79	 2089.88
     77.8110	 2877.00	 2808.74	-2087.97	 2087.43
     77.8370	 2854.00	 2805.93	-2108.15	 2084.98
     77.8630	 2847.00	 2803.12	-2112.34	 2082.53
     77.8890	 2814.00	 2800.32	-2142.54	 2080.08
     77.9150	 2790.00	 2797.52	-2163.75	 2077.64
     77.9410	 2772.00	 2794.74	-2178.96	 2075.19
     77.9670	 2853.00	 2791.96	-2095.18	 2072.74
     77.9930	 2798.00	 2789.18	-2147.41	 2070.29
     78.0190	 2794.00	 2786.41	-2148.64	 2067.84
     78.0450	 2739.00	 2783.65	-2200.88	 2065.39
     78.0710	 2818.00	 2782.50	-2120.73	 2064.54
     78.0970	 2729.00	 2782.37	-2209.59	 2064.71
     78.1230	 2778.00	 2782.24	-2160.47	 2064.88
     78.1490	 2816.00	 2782.12	-2122.34	 2065.04
     78.1750	 2720.00	 2782.00	-2218.23	 2065.21
     78.2010	 2818.00	 2781.89	-2120.12	 2065.38
     78.2270	 2756.00	 2781.79	-2182.01	 2065.55
     78.2530	 2791.00	 2781.69	-2146.91	 2065.71
     78.2790	 2803.00	 2781.59	-2134.82	 2065.88
     78.3050	 2826.00	 2781.50	-2111.72	 2066.05
     78.3310	 2808.00	 2781.41	-2129.64	 2066.22
     78.3570	 2761.00	 2781.33	-2176.56	 2066.38
     78.3830	 2801.00	 2781.25	-2136.48	 2066.55
     78.4090	 2796.00	 2781.18	-2141.41	 2066.72
     78.4350	 2804.00	 2781.11	-2133.34	 2066.89
     78.4610	 2810.00	 2781.05	-2127.27	 2067.05
     78.4870	 2799.00	 2780.99	-2138.21	 2067.22
     78.5130	 2754.00	 2780.93	-2183.15	 2067.39
     78.5390	 2762.00	 2780.88	-2175.10	 2067.56
     78.5650	 2779.00	 2780.83	-2158.05	 2067.72
     78.5910	 2886.00	 2780.78	-2051.01	 2067.89
     78.6170	 2842.00	 2780.74	-2094.96	 2068.06
     78.6430	 2932.00	 2780.70	-2004.92	 2068.23
     78.6690	 2991.00	 2780.66	-1945.89	 2068.39
     78.6950	 2912.00	 2780.63	-2024.86	 2068.56
     78.7210	 2814.00	 2780.60	-2122.83	 2068.73
     78.7470	 2872.00	 2780.58	-2064.80	 2068.90
     78.7730	 2892.00	 2780.55	-2044.78	 2069.06
     78.7990	 2806.00	 2780.53	-2130.76	 2069.23
     78.8250	 2866.00	 2780.52	-2070.74	 2069.40
     78.8510	 2904.00	 2780.50	-2032.73	 2069.57
     78.8770	 2887.00	 2780.37	-2049.60	 2069.61
     78.9030	 2866.00	 2780.19	-2070.42	 2069.61
     78.9290	 2815.00	 2780.02	-2121.25	 2069.61
     78.9550	 2867.00	 2779.85	-2069.08	 2069.61
     78.9810	 2839.00	 2779.68	-2096.91	 2069.61
     18.3377	        	        	        	        	       0	(  1  1  1)	  0  1
     18.3841	        	        	        	        	       0	(  1  1  1)	  0  2
     30.1649	        	        	        	        	       0	(  2  2  0)	  0  1
     30.2424	        	        	        	        	       0	(  2  2  0)	  0  2
     35.5310	        	        	        	        	       0	(  3  1  1)	  0  1
     35.6231	        	        	        	        	       0	(  3  1  1)	  0  2
     37.1674	        	        	        	        	       0	(  2  2  2)	  0  1
     37.2641	        	        	        	        	       0	(  2  2  2)	  0  2
     43.1835	        	        	        	        	       0	(  4  0  0)	  0  1
     43.2973	        	        	        	        	       0	(  4  0  0)	  0  2
     47.2825	        	        	        	        	       0	(  3  3  1)	  0  1
     47.4084	        	        	        	        	       0	(  3  3  1)	  0  2
     53.5765	        	        	        	        	       0	(  4  2  2)	  0  1
     53.7218	        	        	        	        	       0	(  4  2  2)	  0  2
     57.1141	        	        	        	        	       0	(  5  1  1)	  0  1
     57.1141	        	        	        	        	       0	(  3  3  3)	  0  1
     57.2707	        	        	        	        	       0	(  5  1  1)	  0  2
     57.2707	        	        	        	        	       0	(  3  3  3)	  0  2
     62.7205	        	        	        	        	       0	(  4  4  0)	  0  1
     62.8958	        	        	        	        	       0	(  4  4  0)	  0  2
     65.9490	        	        	        	        	       0	(  5  3  1)	  0  1
     66.1356	        	        	        	        	       0	(  5  3  1)	  0  2
     67.0067	        	        	        	        	       0	(  4  4  2)	  0  1
     67.1972	        	        	        	        	       0	(  4  4  2)	  0  2
     71.1607	        	        	        	        	       0	(  6  2  0)	  0  1
     71.3666	        	        	        	        	       0	(  6  2  0)	  0  2
     74.2088	        	        	        	        	       0	(  5  3  3)	  0  1
     74.4265	        	        	        	        	       0	(  5  3  3)	  0  2
     75.2142	        	        	        	        	       0	(  6  2  2)	  0  1
     75.4359	        	        	        	        	       0	(  6  2  2)	  0  2
